time,s	strain,%	stress,MPa	stressDrop,MPa	strainDropLength
15667.20019	58.33053	431.61874	0.331230000000005	0.005389999999998452
15634.59863	58.11324	439.58749	0.331230000000005	0.0040000000000048885
4431.0	20.80681	353.46249	0.331230000000005	0.0026100000000006673
3702.0	17.68323	328.09375	0.3312399999999798	0.003920000000000812
2515.39941	12.68513	277.6875	0.3312399999999798	0.001300000000000523
13520.39941	50.22101	457.48749	0.3312399999999798	0.00269999999999726
15611.39941	57.95854	443.71875	0.3312399999999798	0.005380000000002383
15678.59863	58.40649	428.11249	0.3312399999999798	0.0040000000000048885
4339.19922	20.19485	349.20624	0.3312399999999798	0.0026100000000006673
88.0	0.58535	72.89375	0.33124999999999716	0.0013099999999999223
219.7998	1.46395	98.85	0.33124999999999716	0.0026199999999998447
334.59961	2.22914	117.125	0.33124999999999716	0.0013099999999997003
93.79981	0.62403	74.1875	0.33124999999999716	0.0013000000000000789
326.39941	2.17447	115.1625	0.33124999999999716	0.0026999999999999247
336.0	2.23852	116.25	0.33124999999999716	0.0013100000000001444
44.0	0.29202	63.13125	0.33125000000000426	0.00269999999999998
550.7998	3.21699	136.6125	0.33125000000001137	0.0013899999999997803
610.39941	3.61436	145.95625	0.33125000000001137	0.0013000000000000789
674.7998	4.04362	152.55	0.33125000000001137	0.0026100000000006673
570.19922	3.34632	139.65625	0.33125000000001137	0.0013900000000002244
514.19922	2.97303	131.39375	0.33125000000001137	0.0013899999999997803
1686.59961	9.32437	234.79375	0.3312599999999861	0.0026100000000006673
571.59961	3.3557	139.95	0.3312599999999861	0.0026199999999998447
9662.79981	39.30035	441.38126	0.3312700000000177	0.003990000000001714
3305.19922	16.59265	317.53751	0.3312700000000177	0.00408000000000186
5816.7998	26.02937	387.88751	0.3312700000000177	0.0066099999999984504
3323.79981	16.71667	318.25	0.3374900000000025	0.0053099999999979275
2634.79981	13.48108	285.91251	0.33749999999997726	0.002609999999998891
15687.99902	58.46924	424.69376	0.33749999999997726	0.003920000000000812
15661.20019	58.29055	433.33124	0.33749999999997726	0.005299999999998306
5822.59961	26.06797	388.47501	0.33749999999997726	0.004000000000001336
102.59961	0.6827	76.31875	0.3374999999999915	0.002610000000000001
395.39941	2.63442	125.975	0.3374999999999915	0.0013000000000000789
271.0	1.80518	106.78125	0.3375000000000057	0.002690000000000081
467.59961	2.6624	125.18125	0.3375000000000057	0.0013900000000002244
60.39941	0.40136	66.93125	0.3375000000000057	0.0026900000000000257
478.7998	2.73706	128.51875	0.33751000000000886	0.002689999999999859
6404.2002	27.72106	400.32501	0.33752000000004045	0.005299999999998306
1464.19922	7.84189	214.55624	0.375	0.0012999999999996348
531.0	3.08506	134.10625	0.375	0.0026900000000003033
569.39941	3.34102	139.575	0.375	0.0026900000000003033
282.39941	1.88123	107.8625	0.375	0.0013000000000000789
4476.59961	21.11066	354.84375	0.375	0.00408000000000186
3075.39941	15.06081	302.26874	0.375	0.002689999999999415
529.0	3.07168	134.39999	0.375	0.002689999999999859
160.7998	1.07059	88.04375	0.375	0.0013900000000000023
3384.79981	17.12326	321.16876	0.375	0.003990000000001714
72.0	0.47871	69.30625	0.375	0.0013099999999999778
392.39941	2.61443	124.5125	0.375	0.002689999999999859
10228.20019	40.29359	442.38126	0.375	0.003990000000001714
276.19922	1.83986	108.03125	0.375	0.0013799999999999368
3127.39941	15.40742	307.1875	0.375	0.0040800000000000836
74.19922	0.4934	70.26875	0.375	0.002610000000000001
1098.0	6.22209	188.51875	0.375	0.0026100000000006673
178.19922	1.18662	91.13125	0.375	0.0013000000000000789
6556.59863	28.73698	401.90625	0.375	0.0026100000000006673
69.19922	0.46003	68.8875	0.375	0.0013799999999999923
649.39941	3.87431	150.33749	0.375	0.0026200000000002888
10228.99902	40.29897	442.04999	0.375	0.00531000000000148
940.7998	5.17418	172.75	0.375	0.0013100000000001444
536.7998	3.12373	134.77499	0.375	0.0013099999999997003
5948.39941	26.90659	393.23126	0.375	0.0026099999999971146
10213.59863	40.19624	442.17499	0.375	0.0066899999999989745
559.59961	3.27566	138.4875	0.375	0.0026900000000003033
75.39941	0.50139	70.05625	0.375	0.002610000000000001
3750.59961	18.00716	330.55624	0.375	0.005300000000001859
973.0	5.38878	177.13126	0.375	0.003989999999999938
245.7998	1.63726	102.1875	0.375	0.002610000000000001
4610.59961	22.00395	360.80624	0.375	0.0026900000000011914
521.19922	3.0197	133.44376	0.375	0.0013900000000002244
397.19922	2.64641	124.6375	0.375	0.0013900000000002244
801.7998	4.89016	167.325	0.375	0.0026900000000003033
5895.59961	26.55459	392.01874	0.375	0.003999999999997783
575.39941	3.381	139.28125	0.375	0.0013900000000002244
519.59961	3.00901	133.39999	0.375	0.0026999999999999247
3314.19922	16.65271	316.58124	0.38122999999995955	0.00391000000000119
45.0	0.29872	63.34375	0.3812500000000014	0.0026900000000000257
290.0	1.93189	109.74375	0.3812500000000085	0.0026199999999998447
597.59961	3.52901	143.25	0.3812599999999975	0.0013000000000000789
325.7998	2.17047	114.7875	0.4124999999999943	0.0013900000000002244
243.0	1.61857	102.14375	0.4124999999999943	0.0013099999999999223
15705.79981	58.58787	417.51251	0.41250000000002274	0.003920000000000812
9727.39941	39.731	441.08749	0.41250000000002274	0.009380000000000166
508.19922	2.93305	131.14375	0.41250000000002274	0.002689999999999859
1160.0	6.63536	196.3625	0.41250000000002274	0.0013099999999992562
1522.39941	8.22979	219.8125	0.4125099999999975	0.001380000000001047
3859.59961	18.73375	335.8125	0.4125099999999975	0.0053099999999979275
655.59961	3.9156	150.88126	0.4125099999999975	0.0040000000000000036
5746.19922	25.55866	386.59375	0.4125099999999975	0.005390000000002004
1731.79981	9.62561	239.13126	0.4125099999999975	0.0039999999999995595
2843.79981	14.87421	300.80624	0.4187299999999823	0.003989999999999938
3915.39941	19.10574	338.39999	0.4187299999999823	0.001300000000000523
3916.59961	19.11365	338.86249	0.4187299999999823	0.002700000000000813
651.59961	3.88892	151.425	0.4187400000000139	0.0013899999999997803
1199.0	6.89532	200.95625	0.4187400000000139	0.002609999999999779
740.19922	4.47958	161.14999	0.4187400000000139	0.0012999999999996348
506.19922	2.91975	131.77499	0.4187400000000139	0.002689999999999859
210.39941	1.40121	96.85	0.41874999999998863	0.0013900000000000023
512.39941	2.96104	131.35625	0.41874999999998863	0.0013799999999997148
518.7998	3.00371	133.10625	0.41874999999998863	0.0026900000000003033
1033.0	5.78875	181.96875	0.41874999999998863	0.0012999999999996348
228.0	1.51854	99.475	0.41874999999998863	0.0013900000000000023
140.39941	0.93466	83.7875	0.41874999999998863	0.00268999999999997
713.59961	4.30219	157.6875	0.41874999999998863	0.0013899999999997803
382.0	2.54515	123.0125	0.41875000000000284	0.0013100000000001444
276.7998	1.84386	107.8625	0.41875000000000284	0.0012999999999998568
348.59961	2.32248	118.2125	0.41875000000000284	0.0013099999999997003
83.19922	0.55337	71.9375	0.41875000000000284	0.002610000000000001
313.7998	2.09051	113.20625	0.41875000000000284	0.0013099999999997003
380.39941	2.53446	122.84375	0.41875000000000284	0.002609999999999779
351.0	2.33848	118.8375	0.41875000000000284	0.0013000000000000789
211.0	1.40521	96.7625	0.41875000000000284	0.002689999999999859
13519.59863	50.21571	457.90625	0.4187600000000202	0.003999999999997783
5242.19922	24.29159	377.875	0.4187600000000202	0.007999999999999119
6608.7998	29.08489	405.28751	0.418769999999995	0.003999999999997783
1415.79981	7.51919	208.88126	0.418769999999995	0.0026900000000003033
479.7998	2.74375	128.47501	0.418769999999995	0.0013100000000001444
1473.39941	7.90317	213.97501	0.418769999999995	0.002689999999999415
3077.59961	15.0755	302.68124	0.456230000000005	0.002689999999999415
580.59961	3.41568	141.49374	0.456230000000005	0.0013000000000000789
2749.59961	14.24626	294.33749	0.456230000000005	0.002700000000000813
15673.59863	58.3732	429.61249	0.4562399999999798	0.00669000000000608
6607.99902	29.07959	405.70624	0.4562399999999798	0.004000000000001336
2557.0	12.96247	277.8125	0.4562399999999798	0.001300000000000523
15693.79981	58.50783	422.5625	0.4562399999999798	0.0066899999999989745
12798.20019	48.42538	456.98749	0.4562399999999798	0.006610000000002003
258.59961	1.72261	105.10625	0.45624999999999716	0.002610000000000001
553.59961	3.23568	138.03125	0.45625000000001137	0.0013100000000001444
258.0	1.71853	105.4	0.45625000000001137	0.0013800000000001589
556.39941	3.25437	138.65625	0.45625000000001137	0.002689999999999859
2031.39941	10.62211	252.7375	0.45625000000001137	0.002700000000000813
689.39941	4.14088	155.6375	0.4562599999999861	0.0026900000000003033
985.39941	5.47151	178.75626	0.4562599999999861	0.002609999999999779
624.7998	3.71031	147.16875	0.4562599999999861	0.0013099999999997003
722.19922	4.35955	158.60001	0.4562599999999861	0.0026900000000003033
8028.7998	33.7031	424.98126	0.4562700000000177	0.007989999999999498
572.39941	3.36101	140.24374	0.4624900000000025	0.0013900000000002244
10313.79981	40.86425	445.43124	0.4624900000000025	0.00531000000000148
3381.39941	17.10066	320.96249	0.4624900000000025	0.003909999999997638
608.7998	3.60367	144.91875	0.46249999999997726	0.0012999999999996348
4038.79981	19.92829	345.45624	0.46249999999997726	0.005299999999998306
64.39941	0.42804	67.85	0.4624999999999915	0.0013900000000000023
309.0	2.05853	112.70625	0.4624999999999915	0.002689999999999859
160.19922	1.06659	87.54375	0.4625000000000057	0.0013900000000000023
337.59961	2.24913	116.04375	0.4625000000000057	0.002689999999999859
8223.79981	35.00297	430.20001	0.46252000000004045	0.006610000000002003
15675.20019	58.38381	429.20001	0.46252000000004045	0.006770000000003051
3383.19922	17.11257	321.04376	0.46252000000004045	0.0026899999999976387
331.0	2.20515	116.25	0.5	0.002689999999999859
520.39941	3.0144	133.64999	0.5	0.0012999999999996348
15670.79981	58.35451	430.53125	0.5	0.008000000000002672
150.7998	1.00393	86.5	0.5	0.002690000000000081
366.39941	2.44112	121.75625	0.5	0.002689999999999859
3260.0	16.29133	314.07501	0.5	0.0026900000000011914
506.7998	2.92375	131.48125	0.5	0.0040000000000000036
3770.79981	18.14179	331.51874	0.5	0.004000000000001336
7423.2002	32.15453	416.38751	0.5	0.00408000000000186
308.39941	2.05453	113.1625	0.5	0.002609999999999779
15695.39941	58.51852	421.98126	0.5	0.005299999999998306
341.0	2.27181	117.54375	0.5	0.0013900000000002244
3263.79981	16.3167	314.45001	0.5	0.0053099999999979275
485.39941	2.78112	129.26875	0.5	0.002609999999999779
474.59961	2.70907	127.80625	0.5	0.0026999999999999247
4581.0	21.80665	360.80624	0.5	0.003999999999997783
548.39941	3.20109	137.2375	0.5	0.002609999999999779
499.59961	2.87577	131.6875	0.5	0.006609999999999783
293.7998	1.95719	110.49375	0.5	0.0013000000000000789
62.7998	0.41735	67.30625	0.5	0.0013099999999999778
487.59961	2.79573	129.3125	0.5	0.0026900000000003033
533.39941	3.10105	135.31876	0.5	0.0026100000000002233
9574.59863	38.71246	441.29999	0.5	0.00531000000000148
3379.59961	17.08858	321.04376	0.5	0.004000000000001336
608.19922	3.59967	144.79375	0.5062399999999911	0.0013099999999997003
15677.20019	58.39719	428.57501	0.5062500000000227	0.007999999999995566
3857.59961	18.72037	335.64999	0.5062500000000227	0.004000000000001336
9772.59863	40.03232	441.84375	0.5062599999999975	0.006610000000002003
566.39941	3.32103	140.28751	0.5062599999999975	0.0013000000000000789
476.7998	2.72376	128.18124	0.5374900000000054	0.005390000000000228
194.19922	1.29326	94.3	0.5374999999999943	0.0013900000000000023
15692.20019	58.49714	423.1875	0.5375099999999975	0.007999999999995566
4684.39941	22.49588	366.14999	0.5437299999999823	0.003990000000001714
8661.79981	35.31498	431.99374	0.5437299999999823	0.0040000000000048885
1162.0	6.64866	197.24374	0.5437400000000139	0.002700000000000813
527.19922	3.05976	133.89999	0.5437400000000139	0.0012300000000000644
1072.79981	6.05409	187.5625	0.5437499999999886	0.0013099999999992562
674.19922	4.03962	152.34375	0.5437499999999886	0.0013100000000001444
577.39941	3.39438	139.2	0.5437499999999886	0.0026100000000002233
111.79981	0.74397	78.19375	0.5437499999999886	0.00268999999999997
234.59961	1.56252	101.26875	0.5437500000000028	0.006690000000000085
194.7998	1.29726	94.2625	0.5437500000000028	0.002689999999999859
383.7998	2.55707	124.43125	0.5437500000000028	0.002689999999999859
338.19922	2.25313	116.04375	0.5437500000000028	0.002689999999999859
470.7998	2.6837	127.18125	0.5437500000000028	0.002689999999999859
163.7998	1.09058	88.79375	0.5437500000000028	0.0013900000000000023
339.39941	2.26112	116.125	0.5437500000000028	0.0026999999999999247
5692.7998	25.20275	384.59375	0.5437600000000202	0.003999999999997783
7435.59863	32.23727	415.88751	0.5437600000000202	0.003989999999994609
3374.39941	17.0539	320.875	0.5437600000000202	0.002700000000000813
774.39941	4.70755	164.31876	0.543769999999995	0.0012999999999996348
15686.39941	58.45855	425.31876	0.543769999999995	0.007989999999999498
640.0	3.81165	149.33749	0.581230000000005	0.0013099999999997003
4018.79981	19.79496	344.74374	0.581230000000005	0.004000000000001336
5678.39941	25.10679	384.79999	0.5812399999999798	0.00531000000000148
3262.0	16.30471	314.53125	0.5812399999999798	0.005299999999998306
3699.59961	17.66716	328.21875	0.5812399999999798	0.006690000000002527
224.59961	1.49594	99.475	0.5812499999999972	0.002610000000000001
394.39941	2.62773	124.84375	0.5812499999999972	0.0013799999999997148
187.19922	1.24659	93.175	0.5812499999999972	0.002610000000000001
179.7998	1.19731	91.63125	0.5812499999999972	0.002610000000000001
1227.19922	7.08331	203.875	0.5812500000000114	0.002609999999999779
939.39941	5.16488	173.33125	0.5812500000000114	0.0013100000000001444
517.39941	2.99441	132.6875	0.5812500000000114	0.0013000000000000789
317.59961	2.11581	113.99375	0.5812500000000114	0.0013799999999997148
1523.0	8.23378	219.9375	0.5812500000000114	0.004000000000001336
628.0	3.73161	147.16875	0.5812599999999861	0.0026900000000003033
568.7998	3.33702	139.7	0.5812599999999861	0.0013100000000001444
7462.7998	32.41857	419.35001	0.5812700000000177	0.00929999999999609
3376.0	17.06459	320.96249	0.5874900000000025	0.004000000000001336
6601.7998	29.03822	405.25	0.5874900000000025	0.008000000000002672
667.59961	3.99556	151.71875	0.5874900000000025	0.0013900000000002244
3220.39941	16.02737	311.15625	0.5874900000000025	0.003999999999997783
2197.59961	11.72999	266.17499	0.5874999999999773	0.0039999999999995595
4004.19922	19.69762	345.41251	0.5874999999999773	0.0026900000000011914
329.39941	2.19446	116.29375	0.5875000000000057	0.0026999999999999247
482.0	2.75844	128.64375	0.5875100000000089	0.005300000000000082
811.0	4.95143	169.41251	0.5875100000000089	0.0026999999999999247
3247.59961	16.20867	312.95001	0.5875200000000405	0.003999999999997783
4483.19922	21.15472	355.88751	0.5875200000000405	0.005389999999998452
6429.2002	27.88767	399.70001	0.5875200000000405	0.008079999999999643
480.59961	2.74914	128.55624	0.6249899999999968	0.0013000000000000789
557.19922	3.25967	138.28125	0.625	0.0040800000000000836
1007.0	5.61544	180.925	0.625	0.0013899999999997803
9577.20019	38.72976	441.29999	0.625	0.005389999999998452
564.39941	3.30765	139.2	0.625	0.0013799999999997148
288.39941	1.92121	109.90625	0.625	0.0012999999999998568
91.19922	0.60673	74.0625	0.625	0.002610000000000001
6586.39941	28.93558	405.83124	0.625	0.0066899999999989745
4014.39941	19.76559	344.45001	0.625	0.005300000000001859
3175.39941	15.72743	309.77499	0.625	0.0039999999999995595
4995.0	22.64373	367.56876	0.625	0.00537999999999883
7292.39941	31.2827	414.29999	0.625	0.012000000000000455
361.19922	2.40644	119.54375	0.625	0.0013100000000001444
225.19922	1.49994	98.89375	0.625	0.002610000000000001
85.59961	0.56936	72.5625	0.625	0.0013100000000000334
305.7998	2.03715	111.9125	0.625	0.0013899999999997803
50.7998	0.33739	64.8875	0.6312500000000085	0.00268999999999997
191.7998	1.27727	94.2625	0.6312500000000085	0.0013900000000000023
12767.39941	48.22001	457.70001	0.6312500000000227	0.0066899999999989745
5022.19922	22.82511	370.20001	0.6312500000000227	0.005300000000001859
1466.0	7.8538	214.1375	0.6624899999999911	0.004000000000000448
237.59961	1.58259	101.89375	0.6624999999999943	0.0013100000000001444
5169.19922	23.80497	374.45001	0.6625000000000227	0.003999999999997783
7301.59863	31.34406	413.63126	0.6625099999999975	0.003920000000000812
670.7998	4.01694	151.38126	0.6625099999999975	0.0026900000000003033
15683.79981	58.44117	426.23749	0.6687299999999823	0.009380000000000166
3377.79981	17.07658	321.08749	0.6687299999999823	0.004000000000001336
9598.59863	38.87247	444.43124	0.6687299999999823	0.006610000000002003
999.19922	5.56347	178.675	0.6687400000000139	0.0026900000000003033
639.0	3.80496	148.46249	0.6687400000000139	0.0013900000000002244
1265.39941	7.33789	208.175	0.6687400000000139	0.0026900000000003033
646.7998	3.85694	149.425	0.6687400000000139	0.0013800000000001589
538.59961	3.13565	136.1125	0.6687400000000139	0.002689999999999859
1109.79981	6.30075	191.52499	0.6687400000000139	0.001300000000000523
672.39941	4.02763	151.675	0.6687400000000139	0.002609999999999779
1566.79981	8.52581	224.2375	0.6687400000000139	0.001300000000000523
535.19922	3.11305	136.15625	0.6687499999999886	0.0026900000000003033
719.19922	4.33956	158.8125	0.6687499999999886	0.0013100000000001444
1241.79981	7.18057	203.91875	0.6687499999999886	0.0013899999999997803
701.7998	4.22354	155.1375	0.6687499999999886	0.0013800000000001589
803.39941	4.90085	167.95	0.6687499999999886	0.002609999999999779
145.19922	0.96664	85.0375	0.6687499999999886	0.0013099999999999223
99.0	0.65871	75.81875	0.6687499999999886	0.0012999999999999678
312.7998	2.08382	113.4125	0.6687499999999886	0.0040000000000000036
132.59961	0.8826	82.61875	0.6687500000000028	0.0013900000000000023
241.7998	1.61058	101.98125	0.6687500000000028	0.0013000000000000789
299.59961	1.99586	110.99375	0.6687500000000028	0.0026999999999999247
349.39941	2.32779	119.2125	0.6687500000000028	0.0026900000000003033
333.59961	2.22253	117.0	0.6687500000000028	0.0026100000000002233
5900.7998	26.58927	392.48126	0.6687600000000202	0.009299999999999642
3352.39941	16.90728	319.25	0.6687600000000202	0.004000000000001336
15689.59863	58.47985	424.23126	0.6687600000000202	0.007989999999999498
645.0	3.84494	148.63126	0.668769999999995	0.0013900000000002244
3195.59961	15.86206	309.69376	0.668769999999995	0.0039999999999995595
15703.99902	58.57588	418.35001	0.668769999999995	0.008000000000002672
4569.39941	21.7293	359.72501	0.668769999999995	0.005390000000002004
3300.0	16.55806	316.53751	0.668769999999995	0.003909999999997638
584.39941	3.44105	141.99374	0.706230000000005	0.0013099999999997003
5279.59961	24.54086	379.0	0.7062399999999798	0.009300000000003195
3372.59961	17.04199	321.0	0.7062399999999798	0.0026100000000006673
5063.0	23.09706	369.73749	0.7062399999999798	0.004000000000001336
118.39941	0.78795	79.4875	0.7062499999999972	0.00268999999999997
208.19922	1.3866	96.21875	0.7062499999999972	0.005309999999999926
386.0	2.57183	125.0125	0.7062499999999972	0.0013100000000001444
165.19922	1.09997	89.125	0.7062499999999972	0.002690000000000081
666.7998	3.99026	151.675	0.7062500000000114	0.002689999999999859
137.19922	0.91328	83.36875	0.7062500000000114	0.00268999999999997
1062.39941	5.98473	186.60001	0.7062599999999861	0.0026999999999999247
574.59961	3.37561	139.825	0.7062599999999861	0.0027800000000000047
718.19922	4.33287	158.47501	0.7062599999999861	0.0026900000000003033
781.39941	4.75414	164.94376	0.7062599999999861	0.0026900000000003033
15702.39941	58.5652	419.10001	0.7062700000000177	0.007989999999999498
3350.39941	16.89398	319.125	0.7124900000000025	0.005220000000001335
515.7998	2.98372	131.89999	0.7124900000000025	0.0013000000000000789
516.59961	2.98902	132.27499	0.7124900000000025	0.0013100000000001444
2841.39941	14.85822	299.43124	0.7124900000000025	0.0026900000000011914
2836.19922	14.82354	298.93124	0.7124900000000025	0.004000000000001336
3348.59961	16.88199	319.0	0.7124900000000025	0.003990000000001714
596.0	3.51832	143.25	0.7124900000000025	0.0013099999999997003
676.39941	4.05423	153.93124	0.7124900000000025	0.0026900000000003033
3768.59961	18.1271	331.64374	0.7124999999999773	0.006690000000002527
4031.0	19.87631	345.78751	0.7124999999999773	0.004000000000001336
369.7998	2.4638	121.925	0.7124999999999915	0.0013100000000001444
469.39941	2.67448	126.18125	0.7125000000000057	0.0039199999999999235
524.7998	3.04369	133.94376	0.7125100000000089	0.0013900000000002244
694.19922	4.17286	155.60001	0.7125100000000089	0.0026999999999999247
990.19922	5.5035	177.63126	0.7125100000000089	0.0026900000000003033
3855.59961	18.70707	335.60626	0.7125200000000405	0.003999999999997783
782.39941	4.76083	166.15625	0.75	0.002689999999999415
620.39941	3.68094	146.83749	0.75	0.0013799999999997148
12766.39941	48.21332	458.36249	0.75	0.0053799999999952774
207.7998	1.38391	96.93125	0.75	0.0013099999999999223
1517.0	8.1938	220.89999	0.75	0.0013100000000001444
539.19922	3.13973	135.52499	0.75	0.0013000000000000789
1001.0	5.57546	178.88126	0.75	0.0013100000000001444
680.59961	4.0823	154.30624	0.75	0.002609999999999779
3222.19922	16.03937	311.31876	0.75	0.003989999999998162
3193.59961	15.84876	309.44376	0.75	0.0039999999999995595
387.59961	2.58244	124.5125	0.75	0.002689999999999859
791.39941	4.8208	168.45	0.75	0.0013899999999997803
546.7998	3.1904	136.7375	0.75	0.0013000000000000789
281.7998	1.87723	108.06875	0.75	0.0013000000000000789
1929.0	9.9395	243.43124	0.75	0.0039999999999995595
124.0	0.82532	80.78125	0.75	0.00268999999999997
202.59961	1.34923	96.43125	0.75	0.005390000000000006
525.59961	3.04908	134.14999	0.75	0.002609999999999779
2146.19922	11.38738	261.95624	0.75	0.002689999999999415
12106.20019	46.7749	455.06876	0.75	0.010689999999996758
583.59961	3.43567	142.03751	0.75	0.002609999999999779
582.7998	3.43036	141.99374	0.75	0.0013100000000001444
585.19922	3.44636	142.36874	0.75	0.0013000000000000789
560.7998	3.28366	139.90625	0.75	0.0026900000000003033
629.19922	3.7396	148.29375	0.75	0.0027000000000003688
1710.59961	9.48429	236.71249	0.75	0.0013900000000006685
1000.19922	5.57008	178.8	0.75	0.0013800000000001589
614.7998	3.64365	145.16875	0.7562399999999911	0.0013000000000000789
1035.59961	5.80605	182.80624	0.7562399999999911	0.0040800000000000836
92.19922	0.61334	74.025	0.7562500000000085	0.00268999999999997
2838.0	14.83553	299.18124	0.7562500000000227	0.0039999999999995595
6571.39941	28.83563	402.66251	0.7562599999999975	0.003990000000001714
818.19922	4.99949	169.66251	0.7562599999999975	0.0013100000000001444
2860.39941	14.98485	301.13751	0.7875000000000227	0.0039999999999995595
622.39941	3.69432	147.125	0.7875099999999975	0.0026900000000003033
940.19922	5.17019	173.53751	0.7875099999999975	0.0026900000000003033
6574.39941	28.85562	403.74374	0.7937299999999823	0.003990000000001714
1420.79981	7.55256	211.80624	0.7937400000000139	0.0026900000000003033
690.59961	4.14888	156.26875	0.7937400000000139	0.0026900000000003033
606.59961	3.58898	144.83125	0.7937400000000139	0.0013100000000001444
619.19922	3.67294	146.08749	0.7937400000000139	0.002689999999999859
547.59961	3.1957	137.1125	0.7937400000000139	0.002689999999999859
136.39941	0.90797	83.7875	0.7937499999999886	0.0026199999999999557
1638.39941	9.00305	231.5	0.7937499999999886	0.002689999999999415
127.19922	0.8467	81.45	0.7937500000000028	0.002610000000000001
144.0	0.95864	84.83125	0.7937500000000028	0.0026999999999999247
374.7998	2.49709	121.96875	0.7937500000000028	0.0013899999999997803
245.19922	1.63326	102.525	0.7937500000000028	0.0013100000000001444
369.0	2.4585	122.3	0.7937500000000028	0.0013100000000001444
343.7998	2.2905	118.41875	0.7937500000000028	0.0012999999999996348
81.0	0.53868	71.6875	0.7937500000000028	0.00268999999999997
2159.39941	11.47534	262.875	0.7937600000000202	0.004000000000001336
2619.0	13.37574	284.90625	0.7937600000000202	0.005300000000000082
586.7998	3.45704	142.28751	0.793769999999995	0.0026199999999998447
1001.79981	5.58076	179.13126	0.793769999999995	0.0013900000000006685
587.7998	3.46365	143.03751	0.793769999999995	0.0013100000000001444
642.39941	3.82756	148.25626	0.793769999999995	0.002769999999999939
2176.79981	11.59137	264.38126	0.793769999999995	0.0026100000000006673
15191.99902	55.1629	460.66251	0.793769999999995	0.012070000000001357
2574.59961	13.0798	281.31876	0.793769999999995	0.003909999999999414
3218.59961	16.01538	311.06876	0.793769999999995	0.004079999999998307
707.19922	4.2596	157.05624	0.831230000000005	0.0013100000000001444
683.0	4.09829	155.80624	0.831230000000005	0.002689999999999415
5336.39941	24.91946	382.46249	0.831230000000005	0.010680000000000689
12688.59863	47.69479	455.14999	0.831230000000005	0.010609999999999786
7871.39941	32.65389	422.4375	0.8312399999999798	0.007989999999999498
2833.19922	14.80355	298.54999	0.8312399999999798	0.0026900000000011914
149.7998	0.99724	86.33125	0.8312499999999972	0.00268999999999997
335.19922	2.23314	117.0	0.8312499999999972	0.0040000000000000036
374.19922	2.4931	122.3	0.8312499999999972	0.0013000000000000789
1228.19922	7.08992	203.83125	0.8312500000000114	0.0013899999999997803
568.0	3.33172	139.65625	0.8312500000000114	0.0013000000000000789
1995.0	10.37946	249.73125	0.8312599999999861	0.0013799999999992707
4601.7998	21.94528	361.22501	0.8312700000000177	0.004000000000001336
6503.2002	28.38099	401.82501	0.8312700000000177	0.007989999999999498
4012.0	19.7496	344.70001	0.8312700000000177	0.006679999999999353
6566.99902	28.80625	403.20001	0.8312700000000177	0.005390000000002004
9738.59863	39.80566	441.84375	0.8374900000000025	0.005299999999998306
4364.59961	20.36416	351.33749	0.8374900000000025	0.004000000000001336
729.7998	4.41022	158.8125	0.8374900000000025	0.0026900000000003033
1157.59961	6.61929	195.53125	0.8374900000000025	0.0013899999999997803
573.0	3.36501	139.99374	0.8374900000000025	0.0026900000000003033
518.19922	2.99971	133.27499	0.8374900000000025	0.0013100000000001444
1150.0	6.5687	194.78125	0.8374900000000025	0.004000000000000448
515.0	2.97842	131.85625	0.8374999999999773	0.0013000000000000789
2687.59961	13.83299	289.20624	0.8374999999999773	0.0039999999999995595
2572.79981	13.0678	281.23749	0.8374999999999773	0.003919999999999035
2785.59961	14.48623	295.92499	0.8374999999999773	0.002689999999999415
175.0	1.16532	91.00625	0.8374999999999915	0.0040000000000000036
217.39941	1.44796	98.51875	0.8374999999999915	0.005310000000000148
367.39941	2.44781	121.925	0.8374999999999915	0.002609999999999779
342.19922	2.27981	117.9625	0.8375000000000057	0.0026900000000003033
1189.79981	6.83396	199.28751	0.8375100000000089	0.0039999999999995595
702.7998	4.23023	156.39375	0.8375100000000089	0.001300000000000523
697.19922	4.19294	154.85001	0.8375100000000089	0.0012999999999996348
260.59961	1.73591	105.19375	0.875	0.002689999999999859
815.0	4.97811	170.325	0.875	0.0026999999999999247
101.0	0.67201	76.31875	0.875	0.00268999999999997
350.39941	2.33448	119.29375	0.875	0.002689999999999859
129.19922	0.86	81.86875	0.875	0.0012999999999999678
998.39941	5.55816	178.88126	0.875	0.002609999999999779
607.39941	3.59429	145.0	0.875	0.0013800000000001589
779.0	4.73815	164.19376	0.875	0.0013800000000001589
9608.59863	38.93913	443.79999	0.875	0.009300000000003195
732.19922	4.42621	160.39375	0.875	0.0013100000000001444
693.39941	4.16756	155.43124	0.875	0.0026999999999999247
3949.0	19.32963	340.98749	0.875	0.0066899999999989745
162.0	1.07867	88.125	0.875	0.0013000000000000789
977.39941	5.41807	177.63126	0.875	0.002769999999999939
356.7998	2.37715	119.29375	0.875	0.0013100000000001444
396.59961	2.64241	124.8875	0.875	0.0013900000000002244
754.59961	4.57553	162.23125	0.875	0.0013100000000001444
123.19922	0.82002	81.075	0.875	0.002610000000000001
86.19922	0.57336	72.8125	0.875	0.0012999999999999678
298.39941	1.98787	110.74375	0.875	0.0013000000000000789
3245.59961	16.19537	313.07501	0.875	0.003999999999997783
673.19922	4.03293	152.05	0.875	0.0013099999999992562
255.19922	1.69992	104.73125	0.875	0.0013099999999999223
10450.59863	41.77607	447.10001	0.875	0.008070000000003574
590.7998	3.48364	142.16251	0.875	0.0013900000000002244
4336.7998	20.17886	349.33124	0.875	0.004000000000001336
971.7998	5.38078	177.00626	0.8812599999999975	0.0026900000000003033
6564.7998	28.79165	402.66251	0.8812599999999975	0.005299999999998306
820.59961	5.01548	169.91251	0.8812599999999975	0.0026999999999999247
2689.39941	13.84498	289.70624	0.9187299999999823	0.0039999999999995595
9731.59863	39.75898	441.29999	0.9187299999999823	0.006700000000002149
727.0	4.39162	159.26875	0.9187400000000139	0.001300000000000523
641.39941	3.82095	148.46249	0.9187400000000139	0.0027000000000003688
1025.59961	5.73947	182.93124	0.9187400000000139	0.001300000000000523
1106.79981	6.28076	190.4375	0.9187499999999886	0.001300000000000523
644.19922	3.83964	148.29375	0.9187499999999886	0.0012999999999996348
1148.79981	6.56071	194.53125	0.9187499999999886	0.002609999999999779
643.19922	3.83295	148.29375	0.9187499999999886	0.0026900000000003033
501.19922	2.88646	131.4375	0.9187499999999886	0.002609999999999779
108.79981	0.72406	77.81875	0.9187499999999886	0.002610000000000001
1285.59961	7.47251	210.46875	0.9187499999999886	0.0026999999999999247
1016.39941	5.67811	181.6375	0.9187499999999886	0.0012999999999996348
391.19922	2.60643	124.55625	0.9187500000000028	0.0013899999999997803
293.0	1.95188	110.825	0.9187500000000028	0.0026199999999998447
239.0	1.59189	102.4	0.9187500000000028	0.0026999999999999247
289.19922	1.92651	110.40625	0.9187500000000028	0.002690000000000081
192.19922	1.27996	93.71875	0.9187500000000028	0.005300000000000082
7299.2002	31.32799	413.09375	0.9187600000000202	0.0066899999999989745
2756.59961	14.29293	293.54376	0.9187600000000202	0.0026999999999990365
6446.2002	28.001	400.70001	0.9187600000000202	0.01069000000000031
5281.7998	24.55555	378.375	0.9187600000000202	0.003989999999998162
2761.39941	14.32492	293.88126	0.918769999999995	0.002689999999999415
759.0	4.60482	164.06876	0.918769999999995	0.0013899999999997803
700.7998	4.21685	154.97501	0.918769999999995	0.0026900000000003033
2759.59961	14.31292	293.88126	0.918769999999995	0.0039999999999995595
1607.19922	8.79507	228.74374	0.956230000000005	0.0012999999999987466
2773.39941	14.40496	295.33749	0.956230000000005	0.0039999999999995595
698.0	4.19816	155.80624	0.956230000000005	0.002769999999999939
773.59961	4.70216	164.89999	0.956230000000005	0.0026999999999999247
1266.59961	7.34588	208.46249	0.956230000000005	0.0026999999999999247
6485.39941	28.26235	403.11874	0.956230000000005	0.0066899999999989745
3122.0	15.37152	306.5625	0.9562399999999798	0.0039999999999995595
3226.59961	16.06874	312.86249	0.9562399999999798	0.005300000000001859
287.39941	1.91452	109.3625	0.9562499999999972	0.0013000000000000789
2047.59961	10.73006	253.3625	0.9562500000000114	0.002700000000000813
473.59961	2.70238	126.80625	0.9562500000000114	0.0013900000000002244
670.19922	4.01294	151.63126	0.9562599999999861	0.0013099999999992562
3188.59961	15.81539	308.98126	0.9562700000000177	0.002689999999999415
5016.19922	22.78504	369.69376	0.9562700000000177	0.008079999999999643
2862.39941	14.99815	301.63751	0.9562700000000177	0.0040800000000000836
3938.0	19.25636	340.44376	0.9562700000000177	0.003999999999997783
3216.79981	16.00338	311.03125	0.9624900000000025	0.004000000000001336
615.59961	3.64895	145.5	0.9624900000000025	0.0026999999999999247
2215.19922	11.84733	267.21875	0.9624900000000025	0.0026100000000006673
2104.79981	11.11143	256.99374	0.9624900000000025	0.003919999999999035
2857.0	14.96216	300.80624	0.9624900000000025	0.0026999999999990365
787.0	4.79151	166.825	0.9624999999999773	0.0013100000000001444
2762.79981	14.3343	294.13126	0.9624999999999773	0.0039999999999995595
130.7998	0.8706	82.24375	0.9625000000000057	0.0026999999999999247
1104.79981	6.26738	191.81876	0.9625100000000089	0.002689999999999415
2048.59961	10.73675	253.1125	0.9625100000000089	0.0026999999999990365
980.59961	5.43953	178.88126	0.9625100000000089	0.002609999999999779
319.19922	2.12649	114.0375	1.0	0.0013900000000002244
550.0	3.21169	137.1125	1.0	0.0013100000000001444
2768.0	14.3689	294.50626	1.0	0.002689999999999415
3370.59961	17.02861	321.0	1.0	0.003999999999997783
1243.0	7.18857	204.625	1.0	0.002689999999999415
717.39941	4.32757	158.10001	1.0	0.001300000000000523
307.39941	2.04784	112.45	1.0	0.0013100000000001444
1027.79981	5.75415	183.1375	1.0	0.002609999999999779
3346.59961	16.8686	319.0	1.0	0.005389999999998452
1270.19922	7.36995	207.33749	1.0	0.002609999999999779
2802.59961	14.59956	297.29999	1.0	0.0026999999999990365
549.19922	3.20639	137.28125	1.0	0.0026900000000003033
2764.39941	14.34491	294.33749	1.0	0.0039999999999995595
95.0	0.63202	75.23125	1.0	0.0026999999999999247
8725.20019	35.73756	434.08124	1.0	0.01198999999999728
1061.19922	5.97674	185.72501	1.0	0.002689999999999415
2616.79981	13.36105	283.98749	1.0	0.0026999999999990365
365.19922	2.43313	121.63125	1.0	0.0013800000000001589
526.39941	3.05438	134.39999	1.0	0.002689999999999859
787.7998	4.79681	166.95	1.0062399999999911	0.0026900000000003033
1569.0	8.5405	224.7	1.0062399999999911	0.0026100000000006673
555.19922	3.24637	138.99374	1.0062399999999911	0.0040000000000000036
273.39941	1.82125	107.65625	1.0062499999999943	0.0013099999999999223
2834.59961	14.81285	298.93124	1.0062500000000227	0.004000000000001336
5837.7998	26.16931	385.63751	1.0062500000000227	0.0026900000000011914
2839.59961	14.84622	299.18124	1.0062500000000227	0.0039999999999995595
996.7998	5.54748	178.8	1.0062500000000227	0.0012999999999996348
2858.59961	14.97285	301.10001	1.0062599999999975	0.004000000000001336
2741.59961	14.19298	293.00626	1.0062599999999975	0.002689999999999415
653.59961	3.9023	151.21875	1.0062599999999975	0.0026100000000002233
662.39941	3.96097	151.50626	1.0375099999999975	0.002609999999999779
4023.0	19.82287	345.61874	1.0437299999999823	0.0026899999999976387
2855.39941	14.95156	300.68124	1.0437299999999823	0.002689999999999415
3192.0	15.83807	309.36249	1.0437299999999823	0.002689999999999415
1570.0	8.54711	224.2375	1.0437400000000139	0.001300000000000523
1002.79981	5.58746	179.425	1.0437400000000139	0.0012999999999996348
768.7998	4.67018	164.39999	1.0437400000000139	0.0012999999999996348
671.7998	4.02363	151.8	1.0437400000000139	0.0013100000000001444
623.0	3.69832	146.58749	1.0437400000000139	0.0026900000000003033
804.59961	4.90884	168.86874	1.0437400000000139	0.0026100000000006673
1245.79981	7.20725	205.21249	1.0437400000000139	0.0013899999999997803
739.19922	4.47289	160.73125	1.0437499999999886	0.001300000000000523
821.59961	5.02209	170.2	1.0437499999999886	0.0013899999999997803
613.7998	3.63696	145.25	1.0437499999999886	0.002689999999999859
330.19922	2.19985	116.66875	1.0437500000000028	0.002689999999999859
378.59961	2.52247	123.55	1.0437500000000028	0.0013099999999997003
104.79981	0.6973	76.7375	1.0437500000000028	0.00268999999999997
302.39941	2.01447	111.575	1.0437500000000028	0.0040799999999996395
780.0	4.74484	165.69376	1.043769999999995	0.0026900000000003033
4028.79981	19.86154	345.53751	1.043769999999995	0.004079999999998307
2758.0	14.30224	293.75626	1.043769999999995	0.0040800000000000836
997.59961	5.55278	179.13126	1.043769999999995	0.002689999999999415
1185.59961	6.80598	198.78751	1.043769999999995	0.001300000000000523
2766.19922	14.3569	294.46249	1.081230000000005	0.0040800000000000836
1195.39941	6.87133	200.61874	1.081230000000005	0.0013099999999992562
3257.39941	16.27403	314.03125	1.0812399999999798	0.005300000000001859
2831.39941	14.79155	298.59375	1.0812399999999798	0.0039999999999995595
2632.79981	13.4677	285.40625	1.0812399999999798	0.003989999999999938
328.0	2.18516	115.95625	1.0812499999999972	0.0040000000000000036
1222.19922	7.04994	203.20625	1.0812500000000114	0.002689999999999415
764.59961	4.64219	165.56876	1.0812599999999861	0.0026999999999999247
1619.59961	8.87772	230.16251	1.0812599999999861	0.002689999999999415
1555.39941	8.44976	223.56876	1.0812599999999861	0.002700000000000813
543.59961	3.1691	136.19376	1.0812599999999861	0.0013100000000001444
3224.0	16.05136	311.69376	1.0812700000000177	0.00408000000000186
8642.99902	35.18966	431.20001	1.0812700000000177	0.006599999999998829
3213.39941	15.9807	310.81876	1.0812700000000177	0.00537999999999883
1228.79981	7.09392	203.75	1.0874900000000025	0.0013899999999997803
633.19922	3.76628	148.21249	1.0874900000000025	0.0013899999999997803
9579.39941	38.74445	441.46875	1.0874900000000025	0.005299999999998306
2739.59961	14.1796	292.83749	1.0874900000000025	0.0039999999999995595
1676.59961	9.25762	234.21249	1.0874900000000025	0.002780000000001337
4367.59961	20.38415	352.21249	1.0874900000000025	0.0066899999999989745
5233.59961	24.23423	378.25	1.0874900000000025	0.00537999999999883
554.39941	3.24098	138.99374	1.0874900000000025	0.0013900000000002244
660.7998	3.95028	152.5125	1.0874999999999773	0.0013900000000002244
4551.0	21.60667	359.22501	1.0874999999999773	0.009299999999999642
1512.59961	8.16451	219.48125	1.0874999999999773	0.0026100000000006673
1224.39941	7.06463	203.04375	1.0874999999999773	0.002609999999999779
472.7998	2.69708	126.975	1.0874999999999915	0.0013899999999997803
164.59961	1.09597	89.3375	1.0875000000000057	0.0012999999999998568
546.0	3.18509	136.7375	1.0875100000000089	0.002609999999999779
1438.79981	7.6725	214.76875	1.0875100000000089	0.002689999999999415
646.0	3.85163	149.675	1.0875100000000089	0.0013099999999997003
2482.79981	12.46785	275.60626	1.0875200000000405	0.003989999999999938
2260.0	12.14588	269.13751	1.0875200000000405	0.002689999999999415
191.0	1.27196	94.34375	1.125	0.0013099999999999223
2771.39941	14.39158	295.08749	1.125	0.004000000000001336
1015.39941	5.67142	181.46875	1.125	0.002689999999999415
2755.0	14.28225	293.58749	1.125	0.0026900000000011914
4505.59961	21.30404	356.59375	1.125	0.0066899999999989745
2119.19922	11.20739	259.58124	1.125	0.003989999999999938
2769.59961	14.37959	294.88126	1.125	0.003989999999999938
2213.59961	11.83664	266.58749	1.125	0.0026900000000011914
988.59961	5.49281	179.08749	1.125	0.002689999999999415
3419.59961	17.35523	324.88126	1.125	0.004000000000001336
4036.59961	19.9136	345.78751	1.125	0.005300000000001859
529.7998	3.07706	134.81876	1.125	0.0026999999999999247
7321.99902	31.48	417.30624	1.125	0.009299999999999642
348.0	2.31848	119.0875	1.125	0.0013099999999997003
983.0	5.45552	178.38126	1.125	0.0012199999999999989
2826.59961	14.75957	298.17499	1.125	0.002689999999999415
3215.19922	15.99269	310.98749	1.125	0.0039999999999995595
599.0	3.53831	143.78751	1.125	0.008000000000000007
2479.19922	12.44386	273.64374	1.1312299999999595	0.0039999999999995595
1587.39941	8.66305	226.36874	1.1312399999999911	0.0040800000000000836
626.7998	3.72361	147.08749	1.1312399999999911	0.0040000000000000036
747.39941	4.52755	161.39999	1.1312399999999911	0.0026200000000002888
89.79981	0.59735	73.775	1.1312500000000085	0.0012999999999999678
377.59961	2.51578	123.2625	1.1312500000000085	0.0026900000000003033
2631.0	13.4557	284.74374	1.1312500000000227	0.0039999999999995595
5675.19922	25.08542	385.51251	1.1312500000000227	0.007989999999999498
635.59961	3.78228	148.25626	1.1312599999999975	0.002689999999999859
3210.19922	15.9594	310.53125	1.1312599999999975	0.0026999999999990365
3186.79981	15.80348	308.98126	1.1625000000000227	0.003919999999999035
4020.79981	19.80826	345.36874	1.1687299999999823	0.003999999999997783
8158.2002	34.56562	428.86249	1.1687299999999823	0.012079999999997426
3183.59961	15.7821	308.77499	1.1687299999999823	0.0026100000000006673
2571.0	13.05581	280.98749	1.1687299999999823	0.004000000000001336
3849.0	18.66309	335.77499	1.1687299999999823	0.004000000000001336
1030.0	5.76876	183.55624	1.1687400000000139	0.002689999999999415
1024.59961	5.73277	182.93124	1.1687400000000139	0.0013099999999992562
1023.39941	5.72478	182.43124	1.1687400000000139	0.0026900000000003033
1003.59961	5.59284	179.71875	1.1687499999999886	0.002609999999999779
1158.59961	6.62598	196.575	1.1687499999999886	0.005390000000000228
110.59961	0.73598	78.4875	1.1687500000000028	0.002610000000000001
2253.39941	12.10198	269.71875	1.1687600000000202	0.0026100000000006673
2828.19922	14.77026	298.34375	1.1687600000000202	0.002609999999998891
2157.59961	11.46335	261.79376	1.1687600000000202	0.001300000000000523
2236.19922	11.98726	268.59375	1.1687600000000202	0.0026900000000011914
2255.0	12.11259	270.01251	1.1687600000000202	0.002689999999999415
2685.79981	13.821	289.0	1.1687600000000202	0.003989999999999938
3130.79981	15.4301	306.9375	1.1687600000000202	0.004000000000001336
2829.79981	14.78087	298.51251	1.1687600000000202	0.004070000000000462
1705.79981	9.45231	236.75626	1.168769999999995	0.002689999999999415
5987.59961	27.16785	395.19376	1.168769999999995	0.009299999999999642
2282.0	12.29258	271.47501	1.168769999999995	0.0026100000000006673
5105.59961	23.381	371.23749	1.2062399999999798	0.006699999999998596
631.39941	3.75429	148.41875	1.2062599999999861	0.0013099999999997003
975.0	5.40216	177.91875	1.2062599999999861	0.002689999999999415
545.19922	3.17963	136.81876	1.2062599999999861	0.002689999999999859
3231.59961	16.10203	311.69376	1.2062700000000177	0.0026900000000011914
1573.39941	8.56979	224.40625	1.2124900000000025	0.0026100000000006673
2713.79981	14.00768	290.0	1.2124900000000025	0.0026999999999990365
2738.19922	14.1703	292.71249	1.2124900000000025	0.0026900000000011914
8645.39941	35.20565	431.11874	1.2124900000000025	0.0066899999999989745
544.39941	3.1744	136.65625	1.2124900000000025	0.0013100000000001444
1090.79981	6.17403	189.3125	1.2124900000000025	0.0013100000000001444
5222.19922	24.15827	377.875	1.2124900000000025	0.007989999999999498
813.7998	4.9702	169.24374	1.2124900000000025	0.0012999999999996348
2256.59961	12.12328	270.55624	1.2124900000000025	0.003989999999999938
2799.0	14.57557	296.84375	1.2124900000000025	0.0039999999999995595
541.7998	3.15702	136.15625	1.2124900000000025	0.0026999999999999247
2692.39941	13.86498	290.0	1.2124900000000025	0.0026900000000011914
1021.59961	5.71278	182.0125	1.2124999999999773	0.0013099999999992562
2111.19922	11.1541	259.20624	1.2124999999999773	0.0026200000000002888
735.0	4.4449	160.85625	1.2124999999999773	0.0026100000000006673
9740.59863	39.81895	441.54999	1.2124999999999773	0.005389999999998452
726.0	4.38485	158.76875	1.2125100000000089	0.0026900000000003033
1042.19922	5.85011	185.51875	1.2125100000000089	0.003989999999999938
1060.19922	5.97005	186.26875	1.2125100000000089	0.0026900000000003033
2629.39941	13.44501	284.70001	1.2125200000000405	0.0040800000000000836
744.39941	4.50756	161.73125	1.25	0.004000000000000448
767.59961	4.66218	163.81876	1.25	0.0026999999999999247
2824.79981	14.74757	298.17499	1.25	0.0039999999999995595
3190.19922	15.82608	309.27499	1.25	0.004000000000001336
1765.39941	9.84958	242.5125	1.25	0.002700000000000813
2088.19922	11.00079	257.74374	1.25	0.003919999999999035
272.59961	1.81587	107.7375	1.25	0.0012999999999998568
4619.7998	22.06531	363.26874	1.25	0.005299999999998306
2288.59961	12.33656	272.05624	1.25	0.002689999999999415
1284.19922	7.46321	209.75626	1.25	0.0026999999999999247
4409.39941	20.66279	351.96249	1.25	0.015989999999998616
7303.99902	31.35997	414.21875	1.25	0.003999999999997783
2725.19922	14.08365	291.25	1.25	0.003989999999999938
636.59961	3.78897	148.96249	1.25	0.0013000000000000789
772.0	4.69156	166.1125	1.25	0.002609999999999779
1262.39941	7.3179	207.33749	1.25	0.0026900000000003033
994.7998	5.53418	178.58749	1.25	0.002609999999999779
2800.79981	14.58757	297.04999	1.25	0.0026900000000011914
4679.39941	22.46259	365.48126	1.25	0.005300000000001859
2652.39941	13.59833	285.70001	1.25	0.002689999999999415
2722.0	14.06227	290.70624	1.25	0.002689999999999415
991.19922	5.51011	177.79375	1.25	0.0013800000000001589
1519.79981	8.21241	219.77499	1.2562399999999911	0.002689999999999415
7226.7998	30.84544	414.76251	1.2562500000000227	0.009299999999999642
2823.39941	14.73819	298.01251	1.2562500000000227	0.0026900000000011914
3995.79981	19.64165	343.91251	1.2562599999999975	0.005300000000001859
819.0	5.00479	170.03751	1.2562599999999975	0.0013899999999997803
3912.0	19.08306	339.65625	1.2562599999999975	0.0026100000000006673
786.0	4.78482	165.78125	1.2562599999999975	0.001300000000000523
748.39941	4.53424	161.9375	1.2875099999999975	0.0013100000000001444
4474.0	21.09336	355.38126	1.2875099999999975	0.005389999999998452
9589.99902	38.81511	441.42499	1.2937299999999823	0.0040000000000048885
1549.79981	8.41248	222.27499	1.2937400000000139	0.002609999999998891
992.0	5.51549	178.08749	1.2937400000000139	0.002609999999999779
685.7998	4.11689	154.93124	1.2937400000000139	0.0013900000000006685
1191.19922	6.84335	200.08125	1.2937400000000139	0.002609999999999779
797.59961	4.86217	167.825	1.2937499999999886	0.0013100000000001444
1022.39941	5.71809	182.2625	1.2937499999999886	0.0026900000000003033
1079.79981	6.10076	188.1875	1.2937499999999886	0.002609999999999779
1221.0	7.04195	202.375	1.2937499999999886	0.0012999999999996348
1490.39941	8.0165	217.9375	1.2937499999999886	0.002689999999999415
552.39941	3.22768	137.45	1.2937499999999886	0.0026999999999999247
728.0	4.39823	160.0625	1.2937499999999886	0.001300000000000523
780.7998	4.75022	165.65625	1.2937499999999886	0.0013100000000001444
949.0	5.22885	175.5	1.2937499999999886	0.002689999999999415
1155.79981	6.6073	196.7	1.2937499999999886	0.0013799999999992707
57.0	0.37868	66.6375	1.2937500000000028	0.00268999999999997
147.59961	0.98263	85.875	1.2937500000000028	0.0027000000000000357
207.0	1.37861	97.18125	1.2937500000000028	0.0013000000000000789
2621.79981	13.39434	285.32501	1.2937600000000202	0.002700000000000813
3851.59961	18.68039	336.73126	1.2937600000000202	0.006610000000002003
3236.0	16.1314	312.65625	1.2937600000000202	0.0013100000000001444
14351.79981	52.71199	460.45001	1.2937600000000202	0.013300000000000978
4485.19922	21.16802	356.13751	1.2937600000000202	0.004000000000001336
2712.19922	13.99699	290.0	1.2937600000000202	0.0039999999999995595
4606.59961	21.97727	362.0625	1.2937600000000202	0.003989999999998162
2727.0	14.09564	291.79376	1.2937600000000202	0.004000000000001336
2715.39941	14.01829	290.29376	1.2937600000000202	0.002689999999999415
3211.79981	15.97009	310.81876	1.293769999999995	0.0039999999999995595
995.7998	5.54078	178.75626	1.293769999999995	0.0013100000000001444
692.59961	4.16226	155.22501	1.293769999999995	0.001300000000000523
771.0	4.68487	165.69376	1.293769999999995	0.0012999999999996348
755.59961	4.58222	162.94376	1.293769999999995	0.0013099999999992562
3762.0	18.08312	330.93124	1.331230000000005	0.00269999999999726
2154.59961	11.44336	261.20624	1.3312399999999798	0.002689999999999415
2736.59961	14.15961	292.625	1.3312399999999798	0.002689999999999415
97.0	0.64533	75.60625	1.3312499999999972	0.0013000000000000789
1564.0	8.50712	224.9875	1.3312500000000114	0.0013100000000001444
496.19922	2.85309	130.39375	1.3312500000000114	0.0026100000000002233
711.39941	4.28759	159.01875	1.3312500000000114	0.001300000000000523
931.0	5.10883	173.66251	1.3312599999999861	0.0013800000000001589
709.39941	4.27421	157.85001	1.3312599999999861	0.0013800000000001589
1005.79981	5.60745	180.38126	1.3312599999999861	0.0013800000000001589
688.19922	4.13288	155.5125	1.3312599999999861	0.0026999999999999247
777.39941	4.72754	165.06876	1.3312599999999861	0.0012999999999996348
605.59961	3.58229	144.53751	1.3312599999999861	0.0013900000000002244
3185.19922	15.79279	308.98126	1.3312700000000177	0.0039999999999995595
8653.79981	35.26162	431.57501	1.3312700000000177	0.003999999999997783
807.39941	4.92753	167.86874	1.3374900000000025	0.002609999999999779
2697.19922	13.89704	289.125	1.3374900000000025	0.002609999999998891
2743.39941	14.20497	293.58749	1.3374900000000025	0.004000000000001336
696.19922	4.18625	155.05624	1.3374900000000025	0.002689999999999415
4639.59961	22.19724	362.6875	1.3374900000000025	0.005389999999998452
1014.59961	5.66611	181.46875	1.3374900000000025	0.0013900000000006685
2720.19922	14.05036	290.75	1.3374900000000025	0.0026100000000006673
621.39941	3.68763	147.46249	1.3374900000000025	0.002689999999999859
654.19922	3.9063	150.59375	1.3374900000000025	0.0026100000000002233
2245.59961	12.04992	268.71875	1.3374900000000025	0.002689999999999415
2710.59961	13.9863	289.875	1.3374900000000025	0.0039999999999995595
616.59961	3.65564	146.21249	1.3374900000000025	0.0026999999999999247
2853.59961	14.93948	300.72501	1.3374999999999773	0.0040800000000000836
2231.0	11.95258	268.04999	1.3374999999999773	0.0026900000000011914
1940.39941	10.01555	246.73125	1.3374999999999773	0.0026100000000006673
254.59961	1.69584	105.06875	1.3374999999999915	0.0013900000000000023
352.59961	2.34916	119.88125	1.3374999999999915	0.0026200000000002888
819.59961	5.00879	169.66251	1.3375100000000089	0.0026999999999999247
1127.19922	6.41669	192.69376	1.3375100000000089	0.0026999999999999247
2093.0	11.03278	256.66251	1.3375100000000089	0.002609999999998891
1204.0	6.92861	201.08125	1.3375100000000089	0.0013899999999997803
1108.79981	6.29406	192.19376	1.3375100000000089	0.002609999999999779
2723.59961	14.07296	291.04376	1.3375200000000405	0.002689999999999415
2797.39941	14.56489	296.75626	1.375	0.002689999999999415
5107.7998	23.39569	370.78125	1.375	0.004000000000001336
968.59961	5.35948	176.16875	1.375	0.0013100000000001444
2811.39941	14.65823	297.34375	1.375	0.0026900000000011914
2717.0	14.02898	290.45624	1.375	0.002609999999998891
2569.39941	13.04512	280.77499	1.375	0.0039999999999995595
647.7998	3.86363	149.88126	1.375	0.002689999999999859
720.39941	4.34756	160.14375	1.375	0.001300000000000523
2734.79981	14.14762	292.625	1.375	0.003989999999999938
9752.20019	39.8963	442.29999	1.375	0.0040000000000048885
1080.79981	6.10737	188.4375	1.375	0.002689999999999415
2709.0	13.97562	289.83124	1.375	0.003989999999999938
223.7998	1.49055	100.14375	1.375	0.0026999999999999247
2707.39941	13.96501	289.83124	1.375	0.004000000000001336
2502.59961	12.59978	277.10626	1.375	0.005389999999998452
279.0	1.85854	109.03125	1.375	0.005309999999999926
765.39941	4.6475	164.9875	1.375	0.0026900000000003033
2099.19922	11.07406	257.45001	1.375	0.0013100000000001444
2852.0	14.92888	300.63751	1.375	0.003989999999999938
593.39941	3.50102	144.28751	1.375	0.002609999999999779
1100.19922	6.2367	191.52499	1.375	0.003989999999999938
1017.39941	5.6848	182.05	1.375	0.0026900000000003033
510.0	2.94504	132.4375	1.375	0.005389999999999784
953.7998	5.26084	174.91875	1.3812399999999911	0.0026900000000003033
3119.79981	15.35683	306.27499	1.3812500000000227	0.0039999999999995595
2247.19922	12.06061	269.38751	1.3812500000000227	0.0026999999999990365
3208.39941	15.94741	310.65625	1.3812599999999975	0.0026100000000006673
2684.19922	13.81031	288.875	1.3812599999999975	0.0026900000000011914
2010.59961	10.48349	250.69376	1.3812599999999975	0.002689999999999415
589.7998	3.47703	143.25	1.3812599999999975	0.0026199999999998447
2682.59961	13.7997	288.70624	1.4187299999999823	0.0026100000000006673
1218.79981	7.02726	202.45625	1.4187400000000139	0.0026900000000003033
1271.39941	7.37787	208.21249	1.4187400000000139	0.0026900000000003033
1699.39941	9.40971	236.71249	1.4187400000000139	0.002609999999998891
772.7998	4.69686	165.7375	1.4187400000000139	0.0026900000000003033
1557.0	8.46045	223.8625	1.4187400000000139	0.002689999999999415
581.59961	3.42237	142.20625	1.4187400000000139	0.0040000000000000036
1539.19922	8.34182	222.4875	1.4187400000000139	0.002609999999998891
1089.79981	6.16742	188.8125	1.4187499999999886	0.0013100000000001444
1087.79981	6.15404	189.0625	1.4187499999999886	0.0026999999999999247
1048.19922	5.89009	184.8875	1.4187499999999886	0.0026900000000003033
179.0	1.192	92.38125	1.4187499999999886	0.002610000000000001
612.19922	3.62635	145.16875	1.4187499999999886	0.0013100000000001444
738.39941	4.4675	161.0625	1.4187499999999886	0.0013899999999997803
714.59961	4.30888	159.0625	1.4187499999999886	0.0026999999999999247
958.7998	5.29413	175.25	1.4187499999999886	0.0013800000000001589
1167.59961	6.68603	197.15625	1.4187499999999886	0.0013100000000001444
1047.19922	5.8834	184.7625	1.4187499999999886	0.0026900000000003033
113.79981	0.75735	79.2375	1.4187500000000028	0.002610000000000001
2504.59961	12.61316	277.48126	1.4187600000000202	0.0039999999999995595
2705.79981	13.95432	289.75	1.4187600000000202	0.0026900000000011914
3117.79981	15.34345	306.0625	1.4187600000000202	0.0040800000000000836
2627.79981	13.4344	284.65625	1.4187600000000202	0.0039999999999995595
2699.79981	13.91434	290.79376	1.4187600000000202	0.0026100000000006673
3759.79981	18.06852	330.38751	1.4187600000000202	0.00391000000000119
4445.39941	20.90268	354.84375	1.4187600000000202	0.004079999999998307
3181.79981	15.77011	308.85626	1.4187600000000202	0.003989999999999938
2251.79981	12.09129	269.59375	1.4187600000000202	0.002689999999999415
2250.19922	12.08052	269.46875	1.4187600000000202	0.0040800000000000836
1433.19922	7.63521	213.35001	1.418769999999995	0.0026999999999999247
753.7998	4.57023	162.19376	1.418769999999995	0.001300000000000523
634.0	3.77159	148.38126	1.418769999999995	0.0013799999999997148
2653.79981	13.60771	286.03751	1.418769999999995	0.002609999999998891
1434.59961	7.64452	213.97501	1.418769999999995	0.0026900000000003033
3293.79981	16.51669	316.16251	1.418769999999995	0.0026100000000006673
2567.79981	13.03443	280.39999	1.456230000000005	0.002689999999999415
12762.39941	48.18663	457.73749	1.4562399999999798	0.005389999999998452
5910.19922	26.65193	392.51874	1.4562399999999798	0.009309999999999263
3999.59961	19.66694	343.65625	1.4562399999999798	0.0026900000000011914
3853.59961	18.69377	336.1875	1.4562399999999798	0.0053099999999979275
2052.59961	10.76343	254.8625	1.4562500000000114	0.0039999999999995595
1580.19922	8.61507	225.1125	1.4562500000000114	0.0026900000000011914
1498.59961	8.07117	217.76875	1.4562500000000114	0.002689999999999415
790.0	4.8115	167.4875	1.4562500000000114	0.0013100000000001444
1727.0	9.59362	238.38126	1.4562599999999861	0.0013900000000006685
725.19922	4.37954	158.85001	1.4562599999999861	0.0013899999999997803
3081.0	15.09818	304.47501	1.4562700000000177	0.00531000000000148
2280.39941	12.28189	271.26251	1.4562700000000177	0.0026999999999990365
3297.79981	16.54337	315.82501	1.4562700000000177	0.004000000000001336
1436.0	7.6539	214.30624	1.4624900000000025	0.0012999999999996348
2297.59961	12.39661	272.43124	1.4624900000000025	0.002609999999998891
9530.20019	38.41652	442.21875	1.4624900000000025	0.014610000000004675
967.59961	5.35279	176.08749	1.4624900000000025	0.0013900000000006685
1078.79981	6.09407	188.3125	1.4624900000000025	0.002689999999999415
3146.79981	15.53675	307.52499	1.4624900000000025	0.0026900000000011914
1081.79981	6.11406	188.5625	1.4624900000000025	0.002689999999999415
1020.59961	5.70609	181.96875	1.4624900000000025	0.0013900000000006685
794.7998	4.84348	168.24374	1.4624900000000025	0.0013900000000006685
1166.39941	6.67795	196.99374	1.4624900000000025	0.0026999999999999247
1214.59961	6.99927	202.25	1.4624900000000025	0.0026999999999999247
1491.59961	8.0245	218.23125	1.4624999999999773	0.002689999999999415
2210.19922	11.81395	265.88126	1.4624999999999773	0.0026999999999990365
3764.0	18.09651	331.39374	1.4624999999999773	0.0026100000000006673
3766.39941	18.1125	331.89374	1.4624999999999773	0.005299999999998306
3344.79981	16.85661	319.08124	1.4624999999999773	0.004000000000001336
1087.0	6.14874	189.10625	1.4624999999999773	0.0013899999999997803
1093.59961	6.19272	189.98125	1.4624999999999773	0.001300000000000523
134.0	0.89198	83.2875	1.4624999999999915	0.0027000000000000357
542.7998	3.16371	136.4875	1.4625100000000089	0.0013100000000001444
970.59961	5.37278	176.88126	1.4625100000000089	0.0026900000000003033
994.0	5.52879	178.55	1.4625100000000089	0.0013100000000001444
1059.0	5.96205	186.39375	1.4625100000000089	0.0026900000000003033
1056.79981	5.94737	185.85001	1.4625100000000089	0.002689999999999415
535.7998	3.11704	135.56876	1.4625100000000089	0.0026900000000003033
3112.39941	15.30747	305.60626	1.4625200000000405	0.0040800000000000836
1480.79981	7.95253	217.64375	1.5	0.002609999999999779
1247.19922	7.21664	206.46249	1.5	0.005300000000000082
2211.79981	11.82464	266.21249	1.5	0.0026999999999990365
964.59961	5.3328	175.91875	1.5	0.0026900000000003033
1216.59961	7.01265	202.08125	1.5	0.0026200000000002888
1171.19922	6.71002	198.825	1.5	0.002609999999999779
2650.79981	13.58772	285.70001	1.5	0.0026100000000006673
733.0	4.43152	160.51875	1.5	0.0013800000000001589
687.0	4.12489	155.5125	1.5	0.0026900000000003033
2117.39941	11.19539	258.28751	1.5	0.002689999999999415
2086.39941	10.98871	256.86874	1.5	0.002700000000000813
1154.39941	6.59799	196.03125	1.5	0.002609999999999779
2642.79981	13.53436	285.65625	1.5	0.003989999999999938
953.0	5.25545	174.83125	1.5	0.0013900000000006685
1136.19922	6.47675	195.06876	1.5	0.0012999999999996348
1437.39941	7.6632	214.3875	1.5	0.0013100000000001444
1279.39941	7.43123	207.75626	1.5	0.0012999999999996348
2781.39941	14.45824	295.29999	1.5062299999999595	0.006690000000000751
2061.79981	10.82479	254.325	1.5062399999999911	0.0013100000000001444
2501.0	12.58918	277.02499	1.5062500000000227	0.003989999999999938
1124.0	6.3954	192.7375	1.5062500000000227	0.0012999999999996348
2244.0	12.03932	268.51251	1.5062500000000227	0.0026100000000006673
2029.59961	10.61012	251.7375	1.5062500000000227	0.0013100000000001444
2641.19922	13.52367	285.49374	1.5062500000000227	0.0040800000000000836
3096.39941	15.20083	304.73126	1.5062500000000227	0.0039999999999995595
2733.19922	14.13693	292.46249	1.5062500000000227	0.0026900000000011914
2512.0	12.66245	278.69376	1.5062599999999975	0.002689999999999415
1253.39941	7.25792	206.00626	1.5062599999999975	0.0026999999999999247
3148.59961	15.54882	307.69376	1.5062599999999975	0.0026200000000002888
2039.59961	10.67678	252.90625	1.5062599999999975	0.0026999999999990365
1133.59961	6.45937	195.15625	1.5062599999999975	0.002609999999999779
2299.0	12.40592	272.68124	1.5437299999999823	0.0026100000000006673
3206.59961	15.93542	310.86249	1.5437299999999823	0.003989999999999938
3116.0	15.33146	305.89374	1.5437299999999823	0.0039999999999995595
2134.79981	11.31142	258.86874	1.5437299999999823	0.0026100000000006673
2655.39941	13.6184	286.24374	1.5437299999999823	0.0026100000000006673
5285.59961	24.58084	378.45624	1.5437299999999823	0.00408000000000186
2097.59961	11.06337	257.11874	1.5437400000000139	0.0026999999999990365
952.0	5.24884	174.95625	1.5437400000000139	0.0013099999999992562
1446.59961	7.72448	215.05624	1.5437400000000139	0.0013800000000001589
1575.0	8.58048	224.7375	1.5437400000000139	0.0026100000000006673
1058.0	5.95536	186.01875	1.5437400000000139	0.0013900000000006685
1746.19922	9.72165	239.55	1.5437400000000139	0.002609999999998891
966.59961	5.34618	176.08749	1.5437400000000139	0.0013099999999992562
2074.59961	10.91006	253.7375	1.5437400000000139	0.0026900000000011914
1736.79981	9.65898	239.59375	1.5437499999999886	0.0013100000000001444
945.19922	5.20348	174.625	1.5437499999999886	0.0026900000000003033
1117.59961	6.35272	192.23125	1.5437499999999886	0.0013100000000001444
1088.79981	6.16073	189.0625	1.5437499999999886	0.002609999999999779
749.39941	4.54085	162.48125	1.5437499999999886	0.0013899999999997803
1521.0	8.22049	219.98125	1.5437499999999886	0.002689999999999415
1747.59961	9.73095	240.21875	1.5437499999999886	0.002689999999999415
2000.39941	10.41552	250.35625	1.5437499999999886	0.0039999999999995595
965.59961	5.33949	176.0	1.5437499999999886	0.0013100000000001444
1254.39941	7.26462	205.91875	1.5437499999999886	0.002609999999999779
954.7998	5.26753	175.16875	1.5437499999999886	0.002609999999999779
951.0	5.24215	175.04375	1.5437499999999886	0.0026900000000003033
1009.0	5.62882	181.5125	1.5437499999999886	0.0012299999999996203
969.59961	5.36617	176.66875	1.5437499999999886	0.0013099999999992562
809.7998	4.94352	168.95	1.5437499999999886	0.002609999999999779
957.7998	5.28752	175.125	1.5437499999999886	0.001300000000000523
120.79981	0.80402	80.65625	1.5437500000000028	0.0040000000000000036
2639.79981	13.51437	285.40625	1.5437600000000202	0.0026900000000011914
2794.0	14.5422	296.59375	1.5437600000000202	0.002700000000000813
2514.59961	12.67983	279.23126	1.5437600000000202	0.0039999999999995595
2661.79981	13.66107	286.95001	1.5437600000000202	0.0039999999999995595
2283.59961	12.30327	272.26251	1.5437600000000202	0.004000000000001336
2753.19922	14.27025	293.79376	1.5437600000000202	0.0039999999999995595
3935.39941	19.23898	340.90625	1.5437600000000202	0.0066899999999989745
2690.59961	13.85298	289.28751	1.543769999999995	0.002689999999999415
15706.79981	58.59449	417.10001	1.543769999999995	0.019989999999999952
2186.19922	11.65403	265.13126	1.543769999999995	0.003919999999999035
6496.2002	28.33431	403.99374	1.581230000000005	0.004000000000001336
2821.59961	14.7262	298.17499	1.5812399999999798	0.003989999999999938
1653.0	9.10039	232.70625	1.5812500000000114	0.002609999999998891
1085.0	6.13536	189.14375	1.5812500000000114	0.0013799999999992707
1722.39941	9.56295	238.38126	1.5812599999999861	0.0012999999999987466
1132.19922	6.45007	194.56876	1.5812599999999861	0.0012999999999996348
2602.0	13.2624	282.56876	1.5812700000000177	0.004000000000001336
5122.59961	23.49434	373.70001	1.5812700000000177	0.0066899999999989745
2227.79981	11.93129	267.38126	1.5812700000000177	0.002689999999999415
1049.19922	5.8967	185.05624	1.5874900000000025	0.0026900000000003033
1165.39941	6.67135	196.53125	1.5874900000000025	0.0012999999999996348
2242.59961	12.02993	268.46875	1.5874900000000025	0.002689999999999415
1244.39941	7.19795	205.21249	1.5874900000000025	0.0026100000000006673
594.39941	3.50763	144.125	1.5874900000000025	0.0040000000000000036
2649.19922	13.57703	285.74374	1.5874900000000025	0.002689999999999415
3114.19922	15.31946	305.8125	1.5874900000000025	0.004000000000001336
2704.0	13.94233	289.83124	1.5874999999999773	0.003989999999999938
8639.79981	35.16828	431.41251	1.5874999999999773	0.007989999999999498
1034.0	5.79544	183.1375	1.5874999999999773	0.002689999999999415
2208.79981	11.80465	265.63126	1.5874999999999773	0.002609999999998891
2658.59961	13.6397	286.53751	1.5874999999999773	0.0026900000000011914
2674.79981	13.74764	289.08124	1.5874999999999773	0.0026999999999990365
6490.39941	28.29564	404.03751	1.5874999999999773	0.006690000000002527
1489.19922	8.0085	217.85625	1.5874999999999773	0.0026200000000002888
2592.59961	13.19974	281.48749	1.5874999999999773	0.0039999999999995595
1515.0	8.1805	219.60625	1.5874999999999773	0.0026200000000002888
2595.59961	13.21973	281.86249	1.5874999999999773	0.002689999999999415
2660.19922	13.65038	286.66251	1.5874999999999773	0.0026999999999990365
1596.79981	8.72571	227.78751	1.5875100000000089	0.002700000000000813
993.0	5.5221	178.425	1.5875100000000089	0.0013899999999997803
659.59961	3.94228	151.925	1.5875100000000089	0.0013100000000001444
987.59961	5.48612	178.88126	1.5875100000000089	0.0013800000000001589
1283.0	7.45522	209.3	1.5875100000000089	0.001300000000000523
1213.59961	6.99258	202.33125	1.5875100000000089	0.0013899999999997803
3145.0	15.52484	307.48126	1.5875200000000405	0.0026100000000006673
3139.59961	15.48877	307.23126	1.5875200000000405	0.0039999999999995595
2718.59961	14.03967	290.66876	1.5875200000000405	0.0026900000000011914
1258.79981	7.29391	206.16875	1.625	0.002689999999999415
2156.0	11.45274	261.70624	1.625	0.002609999999998891
586.19922	3.45296	143.16251	1.625	0.0013899999999997803
3088.59961	15.14885	305.8125	1.625	0.004000000000001336
4571.7998	21.74529	360.10001	1.625	0.003999999999997783
2626.19922	13.42372	284.65625	1.625	0.0026900000000011914
1718.0	9.53365	237.50626	1.625	0.002700000000000813
1168.59961	6.69264	197.575	1.625	0.0026999999999999247
1215.59961	7.00596	202.28751	1.625	0.0026999999999999247
1624.79981	8.9124	228.825	1.625	0.0013100000000001444
3107.0	15.27149	305.39374	1.625	0.0039999999999995595
741.0	4.48488	162.35625	1.625	0.002689999999999415
1083.0	6.12206	189.1875	1.625	0.0012999999999996348
1272.39941	7.38456	208.13126	1.625	0.0026900000000003033
1169.79981	6.70064	197.95	1.625	0.0026900000000003033
6410.7998	27.76503	400.15625	1.625	0.0066899999999989745
1991.59961	10.35685	249.64999	1.625	0.0026100000000006673
1969.39941	10.20884	248.23125	1.625	0.002609999999998891
1050.19922	5.90339	185.1375	1.625	0.0026900000000003033
2644.39941	13.54505	285.82501	1.625	0.0039999999999995595
2820.0	14.71559	298.04999	1.625	0.002609999999998891
613.0	3.63165	145.58125	1.625	0.0013100000000001444
1581.19922	8.62176	224.8625	1.625	0.0026100000000006673
6578.2002	28.88091	403.74374	1.625	0.004000000000001336
1608.19922	8.80176	228.86874	1.625	0.002689999999999415
2600.39941	13.2518	282.36249	1.625	0.0026100000000006673
1125.19922	6.40331	192.94376	1.625	0.0013899999999997803
1086.0	6.14205	189.23125	1.6312399999999911	0.0012999999999996348
1582.59961	8.63106	225.325	1.6312399999999911	0.0013900000000006685
1600.79981	8.75239	227.11874	1.6312399999999911	0.0026999999999990365
2083.19922	10.96742	255.99374	1.6312399999999911	0.002689999999999415
2804.39941	14.61156	297.76251	1.6312500000000227	0.002689999999999415
2647.59961	13.56634	285.74374	1.6312500000000227	0.0026999999999990365
3132.59961	15.44218	307.27499	1.6312500000000227	0.0039999999999995595
2173.0	11.56599	263.83749	1.6312500000000227	0.0026900000000011914
1202.59961	6.91931	200.83125	1.6312500000000227	0.0013100000000001444
3136.19922	15.46617	307.14999	1.6312500000000227	0.0026100000000006673
625.7998	3.717	148.25626	1.6312599999999975	0.002609999999999779
1004.59961	5.59945	179.96875	1.6312599999999975	0.0013100000000001444
2795.59961	14.55289	296.71875	1.6312599999999975	0.0039999999999995595
1115.39941	6.33804	191.81876	1.6312599999999975	0.002689999999999415
1123.0	6.38871	192.44376	1.6312599999999975	0.001300000000000523
6562.39941	28.77565	402.36874	1.6687299999999823	0.00531000000000148
2519.59961	12.71312	278.64999	1.6687299999999823	0.003989999999999938
3098.19922	15.21282	304.89374	1.6687299999999823	0.0039999999999995595
2153.0	11.43267	261.20624	1.6687299999999823	0.002689999999999415
3368.79981	17.01661	321.08749	1.6687299999999823	0.003920000000000812
1562.59961	8.49774	224.7375	1.6687400000000139	0.0013899999999988921
1206.39941	6.9446	201.70625	1.6687400000000139	0.0026999999999999247
1128.39941	6.42469	193.39999	1.6687400000000139	0.0026900000000003033
1046.19922	5.87679	184.80624	1.6687400000000139	0.0026100000000006673
1256.59961	7.27922	205.96249	1.6687400000000139	0.0026900000000003033
798.59961	4.86886	168.49374	1.6687400000000139	0.0013100000000001444
758.0	4.59821	164.4875	1.6687400000000139	0.0026200000000002888
1463.19922	7.8352	215.01875	1.6687400000000139	0.0012999999999996348
1626.0	8.9204	229.33125	1.6687400000000139	0.002689999999999415
640.59961	3.81565	149.08749	1.6687400000000139	0.0012999999999996348
1443.39941	7.70318	214.64375	1.6687400000000139	0.0026900000000003033
960.7998	5.30751	175.625	1.6687499999999886	0.001300000000000523
1681.19922	9.2883	235.29375	1.6687499999999886	0.0013900000000006685
1533.59961	8.30444	221.48125	1.6687499999999886	0.002700000000000813
734.19922	4.4396	160.8125	1.6687499999999886	0.0012999999999996348
1164.19922	6.66327	196.40625	1.6687499999999886	0.0026900000000003033
1504.79981	8.11245	218.10625	1.6687499999999886	0.001309999999998368
959.7998	5.30082	175.75	1.6687499999999886	0.001300000000000523
2066.79981	10.85808	254.825	1.6687499999999886	0.0013900000000006685
475.59961	2.71577	128.8125	1.6687500000000028	0.002689999999999859
360.39941	2.40114	120.3	1.6687500000000028	0.0026900000000003033
3108.79981	15.28348	305.5625	1.6687600000000202	0.0039999999999995595
2248.59961	12.06991	269.46875	1.6687600000000202	0.0039999999999995595
3110.59961	15.29548	305.6875	1.6687600000000202	0.003989999999999938
2296.0	12.38593	272.51251	1.6687600000000202	0.0026100000000006673
2195.59961	11.71669	265.29376	1.6687600000000202	0.0026200000000002888
4614.39941	22.02932	362.9375	1.6687600000000202	0.006610000000002003
2850.39941	14.91819	300.76251	1.6687600000000202	0.0026900000000011914
3105.39941	15.2608	305.3125	1.6687600000000202	0.002689999999999415
3134.39941	15.45417	307.10626	1.6687600000000202	0.004000000000001336
1536.19922	8.32182	221.31876	1.668769999999995	0.002609999999998891
2594.19922	13.21043	281.56876	1.668769999999995	0.002609999999998891
1121.79981	6.38071	192.44376	1.668769999999995	0.0026900000000003033
1448.19922	7.73517	215.47501	1.668769999999995	0.0013800000000001589
637.59961	3.79566	149.75626	1.668769999999995	0.0013000000000000789
3429.79981	17.4232	324.58749	1.706230000000005	0.003989999999998162
808.59961	4.93552	168.65625	1.7062500000000114	0.002609999999999779
1576.39941	8.58978	224.9875	1.7062500000000114	0.001300000000000523
634.7998	3.77697	148.66875	1.7062599999999861	0.0013100000000001444
2585.19922	13.15038	281.94376	1.7062700000000177	0.002689999999999415
3998.0	19.65625	344.20001	1.7062700000000177	0.004000000000001336
3150.39941	15.56082	307.98126	1.7062700000000177	0.0039999999999995595
1584.0	8.64045	226.11874	1.7124900000000025	0.0026100000000006673
3137.79981	15.47678	307.14999	1.7124900000000025	0.0039999999999995595
3100.0	15.22482	304.9375	1.7124900000000025	0.0026900000000011914
3143.19922	15.51276	307.39999	1.7124900000000025	0.002689999999999415
2597.19922	13.23042	282.15625	1.7124900000000025	0.002609999999998891
1561.19922	8.48844	224.65625	1.7124900000000025	0.0012999999999987466
5283.7998	24.56885	379.0	1.7124900000000025	0.003989999999998162
3103.59961	15.2488	305.1875	1.7124900000000025	0.002700000000000813
1441.79981	7.69257	214.18124	1.7124900000000025	0.0026200000000002888
1633.39941	8.96968	230.625	1.7124900000000025	0.0013899999999988921
716.59961	4.32218	158.5625	1.7124900000000025	0.0013099999999992562
1759.79981	9.8123	241.55624	1.7124900000000025	0.002609999999998891
1694.0	9.37357	235.58749	1.7124900000000025	0.0014699999999994162
955.7998	5.27414	175.33749	1.7124900000000025	0.0013800000000001589
9742.79981	39.83364	441.96875	1.7124900000000025	0.003999999999997783
3141.39941	15.50085	307.39999	1.7124900000000025	0.003909999999999414
1084.0	6.12867	189.3125	1.7124900000000025	0.0013800000000001589
1077.0	6.08208	188.8125	1.7124900000000025	0.0012999999999996348
4005.39941	19.70562	344.99374	1.7124900000000025	0.010600000000000165
721.0	4.35156	159.1875	1.7124900000000025	0.0026900000000003033
2226.19922	11.9206	267.17499	1.7124999999999773	0.002689999999999415
963.7998	5.3275	176.29375	1.7124999999999773	0.001300000000000523
2580.39941	13.11839	281.56876	1.7124999999999773	0.002700000000000813
2142.59961	11.36339	260.83124	1.7124999999999773	0.002609999999998891
1257.79981	7.28722	205.91875	1.7124999999999773	0.0013800000000001589
2224.59961	11.90999	266.88126	1.7124999999999773	0.002609999999998891
1233.79981	7.12721	203.79375	1.7124999999999773	0.0026900000000003033
236.59961	1.5759	102.0625	1.7125000000000057	0.002689999999999859
1261.19922	7.3099	207.13126	1.7125100000000089	0.0013899999999997803
766.19922	4.65288	163.81876	1.7125100000000089	0.0026100000000006673
1217.79981	7.02065	202.33125	1.7125100000000089	0.0013100000000001444
1618.0	8.86703	229.70625	1.7125100000000089	0.002700000000000813
2094.59961	11.04338	257.16251	1.7125100000000089	0.0026999999999990365
12755.39941	48.14005	457.70001	1.7125200000000405	0.0053799999999952774
5945.0	26.8839	394.10626	1.7125200000000405	0.007919999999998595
2499.19922	12.57718	276.60626	1.7125200000000405	0.002609999999998891
2589.79981	13.18106	281.69376	1.75	0.002689999999999415
1063.39941	5.99143	187.26875	1.75	0.002609999999999779
1054.79981	5.93407	185.68124	1.75	0.0013800000000001589
2582.0	13.12908	281.73749	1.75	0.0026100000000006673
379.39941	2.52777	123.675	1.75	0.0027000000000003688
1116.59961	6.34603	192.14999	1.75	0.0013100000000001444
3101.79981	15.23681	305.14374	1.75	0.0039999999999995595
775.39941	4.71416	165.19376	1.75	0.0013800000000001589
793.7998	4.83679	168.325	1.75	0.0013900000000006685
1031.0	5.77545	183.71875	1.75	0.002689999999999415
2561.0	12.98907	280.94376	1.75	0.002689999999999415
1251.39941	7.24462	206.66875	1.75	0.0013100000000001444
2657.0	13.629	286.45001	1.75	0.002700000000000813
961.7998	5.3142	176.04375	1.75	0.001300000000000523
8636.39941	35.1456	431.32501	1.75	0.0066799999999958
1673.39941	9.23633	234.08749	1.7562399999999911	0.002689999999999415
1078.0	6.08869	188.73125	1.7562399999999911	0.0013800000000001589
962.7998	5.32081	176.21249	1.7562399999999911	0.0013800000000001589
244.59961	1.62926	103.4	1.7562500000000085	0.0013100000000001444
159.39941	1.06129	88.5875	1.7562500000000085	0.002689999999999859
15697.39941	58.53182	421.10626	1.7562500000000227	0.026679999999998927
2646.0	13.55565	285.86874	1.7562500000000227	0.0040800000000000836
1715.39941	9.51636	237.3	1.7562500000000227	0.0012999999999987466
2583.59961	13.13977	281.90625	1.7562599999999975	0.002689999999999415
1485.19922	7.98182	217.1875	1.7562599999999975	0.0026999999999999247
1542.0	8.3605	221.81876	1.7562599999999975	0.0026100000000006673
2116.0	11.18601	258.03751	1.7562599999999975	0.0026900000000011914
1532.39941	8.29645	221.56876	1.7562599999999975	0.001300000000000523
1118.79981	6.36072	192.44376	1.7562599999999975	0.001300000000000523
2792.19922	14.53029	296.67499	1.7937299999999823	0.003919999999999035
3094.59961	15.18883	304.89374	1.7937299999999823	0.002700000000000813
2202.39941	11.76198	266.08749	1.7937299999999823	0.0026100000000006673
2239.79981	12.01125	268.92499	1.7937299999999823	0.002689999999999415
2125.0	11.24606	259.45624	1.7937299999999823	0.0026100000000006673
2294.59961	12.37654	272.68124	1.7937299999999823	0.002689999999999415
6684.39941	29.58882	408.83749	1.7937299999999823	0.008080000000003196
1547.19922	8.3951	222.1125	1.7937400000000139	0.0026900000000011914
1146.39941	6.54463	195.8625	1.7937400000000139	0.0013900000000006685
1528.59961	8.27115	220.77499	1.7937400000000139	0.0013100000000001444
1055.79981	5.94076	185.89375	1.7937400000000139	0.0012999999999996348
1029.0	5.76215	183.55624	1.7937400000000139	0.0012999999999996348
1075.79981	6.07408	189.01875	1.7937400000000139	0.002609999999999779
746.59961	4.52217	162.02499	1.7937400000000139	0.0026900000000003033
750.39941	4.54754	163.14999	1.7937400000000139	0.0013100000000001444
1559.79981	8.47914	224.7375	1.7937400000000139	0.0026100000000006673
1137.19922	6.48335	195.4875	1.7937400000000139	0.0026999999999999247
1144.0	6.52872	195.95	1.7937499999999886	0.0013100000000001444
363.0	2.41844	121.38125	1.7937499999999886	0.002689999999999859
1762.59961	9.8309	242.0125	1.7937499999999886	0.002689999999999415
1757.19922	9.79492	241.34375	1.7937499999999886	0.0013900000000006685
1235.19922	7.13659	204.79375	1.7937499999999886	0.0013100000000001444
1140.59961	6.50604	195.40625	1.7937499999999886	0.0026100000000006673
1985.0	10.31287	248.73125	1.7937499999999886	0.0026200000000002888
1749.19922	9.74164	241.21875	1.7937499999999886	0.002689999999999415
1067.19922	6.01672	187.5625	1.7937499999999886	0.0013899999999997803
176.39941	1.17462	91.4625	1.7937500000000028	0.0013099999999999223
2192.39941	11.69532	264.66876	1.7937600000000202	0.002689999999999415
2241.19922	12.02063	268.59375	1.7937600000000202	0.002689999999999415
2194.0	11.706	265.04376	1.7937600000000202	0.002700000000000813
2818.19922	14.70351	298.13751	1.7937600000000202	0.002700000000000813
2151.59961	11.42337	261.125	1.7937600000000202	0.002689999999999415
2229.39941	11.94197	267.71875	1.7937600000000202	0.0026200000000002888
2666.0	13.68898	288.41251	1.793769999999995	0.002689999999999415
1260.0	7.3019	206.50626	1.793769999999995	0.0013899999999997803
1066.0	6.00872	187.10001	1.793769999999995	0.0013899999999997803
1483.79981	7.97252	216.72501	1.793769999999995	0.002689999999999415
1993.19922	10.36746	249.94376	1.793769999999995	0.0040800000000000836
1770.39941	9.88296	243.85001	1.793769999999995	0.002609999999998891
1120.79981	6.37402	192.6125	1.8000000000000114	0.0013899999999997803
1142.79981	6.52072	195.7	1.8000099999999861	0.0026200000000002888
4001.0	19.67632	343.40625	1.8312399999999798	0.0026100000000006673
1953.79981	10.10481	247.14375	1.8312500000000114	0.002689999999999415
1513.59961	8.17112	219.8125	1.8312500000000114	0.002689999999999415
1018.59961	5.69279	182.3	1.8312500000000114	0.0013100000000001444
1579.0	8.60708	225.3625	1.8312500000000114	0.002689999999999415
9674.79981	39.38039	442.00626	1.8312700000000177	0.0146000000000015
1210.19922	6.96998	202.75	1.8374900000000025	0.0013100000000001444
1209.0	6.9619	202.375	1.8374900000000025	0.0013899999999997803
1709.19922	9.47499	238.34375	1.8374900000000025	0.0053800000000006065
1670.0	9.21364	234.08749	1.8374900000000025	0.002700000000000813
3289.0	16.4847	314.99374	1.8374900000000025	0.004000000000001336
561.39941	3.28774	139.36874	1.8374900000000025	0.0026100000000002233
618.19922	3.66633	146.21249	1.8374900000000025	0.0026100000000002233
1742.39941	9.69627	239.71875	1.8374900000000025	0.002689999999999415
668.59961	4.00225	152.96875	1.8374900000000025	0.0013899999999997803
2287.0	12.32595	271.93124	1.8374900000000025	0.002609999999998891
1543.39941	8.3698	221.77499	1.8374900000000025	0.0026100000000006673
3284.59961	16.45533	314.74374	1.8374900000000025	0.0026900000000011914
2150.19922	11.41398	260.95624	1.8374999999999773	0.002689999999999415
2109.59961	11.14342	259.08124	1.8374999999999773	0.002609999999998891
2141.0	11.3527	260.58124	1.8374999999999773	0.002609999999998891
1012.39941	5.65142	181.3875	1.8374999999999773	0.0026999999999999247
3180.19922	15.75942	309.06876	1.8374999999999773	0.002689999999999415
1013.59961	5.6595	181.5125	1.8374999999999773	0.0013099999999992562
2566.19922	13.02374	280.11249	1.8374999999999773	0.0026200000000002888
1667.0	9.19365	233.04375	1.8374999999999773	0.002700000000000813
2598.79981	13.24111	282.36249	1.8374999999999773	0.002609999999998891
799.7998	4.87686	169.325	1.8374999999999773	0.001300000000000523
1679.59961	9.27769	235.04375	1.8374999999999773	0.0026200000000002888
390.19922	2.59974	125.18125	1.8375000000000057	0.002689999999999859
588.59961	3.46904	143.08125	1.8375100000000089	0.002609999999999779
2017.0	10.52616	251.56876	1.8375100000000089	0.002609999999998891
1430.0	7.61392	213.22501	1.8375100000000089	0.002609999999999779
989.39941	5.49811	178.88126	1.8375100000000089	0.0026900000000003033
1069.79981	6.0341	187.51875	1.8375100000000089	0.001300000000000523
1595.19922	8.71502	227.53751	1.8375100000000089	0.0026999999999990365
1119.79981	6.36733	192.6125	1.8375100000000089	0.0013899999999997803
1197.39941	6.88463	201.28751	1.8375100000000089	0.004000000000000448
1207.59961	6.9526	202.08125	1.8375100000000089	0.002689999999999415
2007.79981	10.4648	249.94376	1.8375100000000089	0.0013100000000001444
2605.79981	13.2877	283.57501	1.8375200000000405	0.0013900000000006685
3364.79981	16.98993	319.91876	1.8375200000000405	0.0026899999999976387
763.19922	4.63289	165.06876	1.875	0.0026100000000006673
1973.19922	10.23414	247.76875	1.875	0.002689999999999415
2663.79981	13.67437	287.49374	1.875	0.0026900000000011914
929.7998	5.10083	173.33125	1.875	0.002689999999999415
669.39941	4.00764	152.425	1.875	0.0012999999999996348
1568.0	8.5338	225.2375	1.875	0.0013100000000001444
1577.59961	8.59778	225.15625	1.875	0.0026100000000006673
1103.39941	6.25807	191.35625	1.875	0.002609999999999779
1236.39941	7.14459	205.125	1.875	0.0026900000000003033
934.7998	5.1342	174.08125	1.875	0.002609999999999779
562.59961	3.29565	139.28125	1.875	0.002689999999999859
1180.79981	6.77399	198.99374	1.875	0.002689999999999415
2168.39941	11.53531	263.0	1.875	0.002689999999999415
2200.59961	11.74998	265.46249	1.875	0.001309999999998368
1692.59961	9.36435	235.29375	1.875	0.001300000000000523
385.0	2.56514	124.84375	1.875	0.0013100000000001444
2680.79981	13.78771	288.95624	1.8812299999999595	0.003909999999999414
1494.59961	8.04449	218.35625	1.8812399999999911	0.0026900000000011914
567.19922	3.32633	140.61874	1.8812399999999911	0.002689999999999859
1220.0	7.03525	202.91875	1.8812399999999911	0.0013900000000006685
1211.39941	6.97798	202.79375	1.8812399999999911	0.001300000000000523
936.0	5.1422	174.41875	1.8812399999999911	0.002609999999999779
2085.0	10.97941	256.74374	1.8812399999999911	0.002700000000000813
173.59961	1.15594	91.13125	1.8812499999999943	0.0013799999999999368
2540.79981	12.85444	278.27499	1.8812500000000227	0.002689999999999415
2166.79981	11.52471	262.58749	1.8812500000000227	0.002609999999998891
2523.19922	12.73719	278.64999	1.8812500000000227	0.0026100000000006673
1720.79981	9.55226	237.96875	1.8812599999999975	0.002689999999999415
2603.79981	13.2744	283.11249	1.9187299999999823	0.0039999999999995595
2171.39941	11.55538	263.33749	1.9187299999999823	0.0026200000000002888
4573.7998	21.75868	360.39374	1.9187299999999823	0.0026100000000006673
1554.0	8.44046	222.89999	1.9187400000000139	0.0013100000000001444
2005.0	10.44612	249.64999	1.9187400000000139	0.0012999999999987466
1280.59961	7.43923	208.55	1.9187400000000139	0.0013800000000001589
2036.59961	10.65671	251.89999	1.9187400000000139	0.002689999999999415
1428.59961	7.60453	212.43124	1.9187400000000139	0.0013100000000001444
745.59961	4.51556	162.14999	1.9187400000000139	0.002609999999999779
1990.0	10.34616	249.02499	1.9187400000000139	0.0013900000000006685
1544.59961	8.3778	221.64999	1.9187400000000139	0.002689999999999415
1645.19922	9.04833	231.20625	1.9187400000000139	0.002700000000000813
1741.19922	9.68827	239.675	1.9187400000000139	0.0013900000000006685
1455.19922	7.78184	215.26875	1.9187400000000139	0.001300000000000523
981.7998	5.44744	179.175	1.9187400000000139	0.002689999999999415
1503.39941	8.10315	217.89375	1.9187400000000139	0.002700000000000813
1616.39941	8.85643	228.7	1.9187499999999886	0.0026100000000006673
1233.0	7.12191	204.375	1.9187499999999886	0.0013800000000001589
1938.0	9.99956	246.0625	1.9187499999999886	0.002609999999998891
1212.39941	6.98467	202.625	1.9187499999999886	0.002609999999999779
1237.79981	7.15389	205.54375	1.9187499999999886	0.0013900000000006685
1650.0	9.0804	232.125	1.9187499999999886	0.0013100000000001444
1612.59961	8.83105	228.45	1.9187499999999886	0.0026900000000011914
710.19922	4.27959	158.1875	1.9187499999999886	0.0013100000000001444
1668.39941	9.20295	233.41875	1.9187499999999886	0.002780000000001337
2073.59961	10.90345	254.45	1.9187499999999886	0.0026100000000006673
950.19922	5.23685	176.125	1.9187499999999886	0.0026100000000006673
1647.0	9.06033	232.375	1.9187499999999886	0.002689999999999415
1138.39941	6.49135	195.53125	1.9187499999999886	0.0026900000000003033
1755.79981	9.78562	241.09375	1.9187499999999886	0.002689999999999415
188.59961	1.25597	93.84375	1.9187500000000028	0.0013099999999999223
2169.79981	11.54469	263.125	1.9187600000000202	0.002700000000000813
2508.0	12.63585	277.8125	1.9187600000000202	0.001300000000000523
2779.59961	14.44625	294.63126	1.918769999999995	0.0026900000000011914
2207.19922	11.79396	265.50626	1.918769999999995	0.0026999999999990365
2205.79981	11.78466	265.38126	1.918769999999995	0.002609999999998891
1274.0	7.39525	209.25626	1.918769999999995	0.0026900000000003033
1695.19922	9.38165	235.75626	1.918769999999995	0.002689999999999415
2591.19922	13.19044	281.69376	1.918769999999995	0.002609999999998891
796.59961	4.85548	168.24374	1.924980000000005	0.0026900000000003033
1744.79981	9.71226	239.3875	1.9250099999999861	0.002689999999999415
2524.79981	12.74779	278.69376	1.9250200000000177	0.002689999999999415
1713.79981	9.50567	237.21249	1.956230000000005	0.002609999999998891
3363.0	16.97794	320.08124	1.9562399999999798	0.004000000000001336
7860.7998	32.58322	423.1875	1.9562399999999798	0.014690000000001646
1644.0	9.04034	231.41251	1.9562599999999861	0.002689999999999415
815.7998	4.98342	170.45	1.9562599999999861	0.002769999999999939
1613.79981	8.83905	228.325	1.9562599999999861	0.002689999999999415
928.7998	5.09414	173.16251	1.9562599999999861	0.0013899999999997803
1114.39941	6.33135	192.02499	1.9624900000000025	0.0013800000000001589
1019.59961	5.69948	182.34375	1.9624900000000025	0.0013099999999992562
1239.19922	7.16327	205.83749	1.9624900000000025	0.0013100000000001444
1696.59961	9.39095	235.96249	1.9624900000000025	0.0013799999999992707
1623.39941	8.9031	228.86874	1.9624900000000025	0.002609999999998891
1174.0	6.72863	199.11874	1.9624900000000025	0.0013800000000001589
2531.59961	12.79316	278.27499	1.9624900000000025	0.0013100000000001444
1739.79981	9.67889	239.96875	1.9624900000000025	0.002689999999999415
2234.39941	11.97527	268.34375	1.9624900000000025	0.002689999999999415
3696.59961	17.64725	328.80624	1.9624900000000025	0.007999999999999119
1507.19922	8.12845	218.3125	1.9624900000000025	0.0013799999999992707
2060.19922	10.8141	254.15625	1.9624900000000025	0.0026200000000002888
2497.39941	12.56519	276.4375	1.9624900000000025	0.0026900000000011914
1179.79981	6.7673	198.99374	1.9624900000000025	0.0013900000000006685
2126.59961	11.25667	260.08124	1.9624999999999773	0.002689999999999415
956.7998	5.28083	175.29375	1.9624999999999773	0.001300000000000523
1496.0	8.05387	218.60625	1.9624999999999773	0.0013100000000001444
2056.0	10.78612	253.3625	1.9625100000000089	0.0012999999999987466
1068.19922	6.02341	187.76875	1.9625100000000089	0.002689999999999415
1936.0	9.98617	245.39375	1.9625100000000089	0.002700000000000813
2015.39941	10.51547	250.9875	1.9625100000000089	0.0013100000000001444
1252.39941	7.25123	206.50626	1.9625100000000089	0.002700000000000813
703.7998	4.23692	157.72501	1.9625100000000089	0.0026900000000003033
1602.19922	8.7617	227.78751	1.9625100000000089	0.0026900000000011914
1558.39941	8.46975	224.4875	1.9625100000000089	0.002700000000000813
8920.39941	37.03873	437.41876	1.9625200000000405	0.010689999999996758
2494.0	12.5425	276.10626	1.9625200000000405	0.0026999999999990365
2035.19922	10.64741	251.69376	2.0	0.002689999999999415
1988.39941	10.33548	248.4375	2.0	0.0013799999999992707
769.7998	4.67687	164.94376	2.0	0.0012999999999996348
2013.79981	10.50478	250.64999	2.0	0.002689999999999415
1665.79981	9.18566	232.83125	2.0	0.0013799999999992707
4577.39941	21.78267	361.60001	2.0	0.009299999999999642
1451.19922	7.75516	214.3875	2.0	0.0026900000000003033
2139.39941	11.34202	260.33124	2.0	0.002689999999999415
2058.79981	10.80472	253.8625	2.0	0.0026900000000011914
2161.39941	11.48872	263.125	2.0	0.003919999999999035
1177.59961	6.7527	199.36874	2.0	0.002609999999999779
2009.19922	10.47419	250.48125	2.0	0.0025999999999992696
2586.79981	13.16107	282.19376	2.0	0.002689999999999415
5201.7998	24.02225	374.24374	2.0	0.004000000000001336
2114.59961	11.17671	258.08124	2.0062299999999595	0.002689999999999415
1255.59961	7.27261	206.08749	2.006239999999991	0.0013100000000001444
2003.59961	10.43681	249.52499	2.006239999999991	0.0013100000000001444
1761.19922	9.8216	241.80624	2.006239999999991	0.002689999999999415
472.0	2.69178	127.64375	2.0062499999999943	0.0013000000000000789
262.7998	1.75059	106.3625	2.0062499999999943	0.0013099999999999223
2638.19922	13.50368	285.86874	2.0062500000000227	0.0026900000000011914
2025.79981	10.58474	251.2375	2.0062500000000227	0.0039999999999995595
2490.79981	12.52113	275.8125	2.0062599999999975	0.0026900000000011914
1529.79981	8.27915	221.31876	2.0062599999999975	0.0026100000000006673
926.39941	5.07823	173.125	2.0062599999999975	0.001300000000000523
1527.19922	8.26185	220.69376	2.0062599999999975	0.001309999999998368
2670.39941	13.71835	287.99374	2.0437299999999823	0.0026900000000011914
2495.79981	12.5545	276.26874	2.0437299999999823	0.002689999999999415
2845.59961	14.8862	300.43124	2.0437299999999823	0.002689999999999415
2123.39941	11.23537	259.08124	2.0437299999999823	0.002700000000000813
2018.59961	10.53677	251.77499	2.043740000000014	0.0013899999999988921
1053.79981	5.92737	185.80624	2.043740000000014	0.0013899999999997803
1743.59961	9.70427	239.55	2.043740000000014	0.0026900000000011914
1502.19922	8.09516	217.76875	2.043740000000014	0.001300000000000523
1188.19922	6.82327	199.86874	2.043740000000014	0.0040800000000000836
1508.39941	8.13644	218.76875	2.043740000000014	0.0026999999999990365
2065.19922	10.84748	254.7375	2.043740000000014	0.0026100000000006673
1281.79981	7.44722	208.925	2.043740000000014	0.0013100000000001444
2096.0	11.05277	257.36874	2.043740000000014	0.002609999999998891
756.7998	4.59022	164.4875	2.043740000000014	0.002609999999999779
1531.19922	8.28845	221.39999	2.043740000000014	0.0013900000000006685
1758.39941	9.80291	241.3875	2.0437499999999886	0.0026999999999990365
1290.19922	7.50319	210.21875	2.0437499999999886	0.0026999999999999247
666.0	3.98496	152.8875	2.0437499999999886	0.002609999999999779
2006.39941	10.4555	249.85625	2.0437499999999886	0.0012999999999987466
1183.19922	6.78998	199.325	2.0437499999999886	0.0026999999999999247
204.39941	1.36123	96.80625	2.043750000000003	0.002690000000000081
2165.19922	11.51402	262.5	2.0437600000000202	0.002609999999998891
2091.79981	11.0247	257.45001	2.0437600000000202	0.0026900000000011914
2521.39941	12.72511	278.60626	2.0437600000000202	0.002689999999999415
4658.7998	22.32526	364.98126	2.0437600000000202	0.01069000000000031
3819.39941	18.4658	333.6875	2.0437600000000202	0.0026099999999971146
2539.19922	12.84375	277.9375	2.0437600000000202	0.002689999999999415
1269.19922	7.36326	207.50626	2.043769999999995	0.0013099999999992562
1453.79981	7.77253	214.97501	2.043769999999995	0.0026999999999999247
2190.79981	11.68463	264.50626	2.043769999999995	0.002689999999999415
2027.79981	10.59813	250.81876	2.043769999999995	0.0026900000000011914
1178.79981	6.76069	199.16251	2.043769999999995	0.0013099999999992562
976.19922	5.41015	178.50626	2.043769999999995	0.002609999999999779
1425.79981	7.58585	211.93124	2.049980000000005	0.0026900000000003033
4599.19922	21.92798	361.5625	2.0499899999999798	0.0066099999999984504
2564.59961	13.01306	279.98749	2.0499899999999798	0.0026900000000011914
1051.39941	5.91138	185.76875	2.0500000000000114	0.0013899999999997803
1487.79981	7.9992	217.73125	2.050009999999986	0.0026100000000006673
1486.59961	7.99113	217.73125	2.050009999999986	0.0013800000000001589
5832.7998	26.13602	390.30624	2.081230000000005	0.00799000000000305
1427.19922	7.59523	212.21875	2.0812500000000114	0.0013100000000001444
715.59961	4.31557	158.97501	2.081259999999986	0.0013100000000001444
1605.39941	8.78299	228.325	2.081259999999986	0.002700000000000813
937.19922	5.1502	174.5	2.0874900000000025	0.001300000000000523
2526.39941	12.75848	278.89999	2.0874900000000025	0.0026999999999990365
1546.0	8.3871	222.02499	2.0874900000000025	0.0013899999999988921
2223.0	11.8993	266.96875	2.0874900000000025	0.002689999999999415
1175.19922	6.73662	199.61874	2.0874900000000025	0.0013899999999997803
1658.0	9.13368	233.0	2.0874900000000025	0.002689999999999415
1728.79981	9.60562	239.71875	2.0874900000000025	0.0013100000000001444
2274.19922	12.24061	271.93124	2.0874900000000025	0.002689999999999415
2528.39941	12.77178	279.31876	2.0874999999999773	0.002700000000000813
3939.19922	19.26436	339.98749	2.0874999999999773	0.0026100000000006673
8181.59863	34.72163	427.73749	2.0874999999999773	0.00531000000000148
2144.19922	11.37408	261.45624	2.0874999999999773	0.0026100000000006673
2492.39941	12.53181	276.01874	2.0874999999999773	0.0026999999999990365
1648.39941	9.06971	232.16875	2.0874999999999773	0.002609999999998891
1141.79981	6.51403	195.7	2.0874999999999773	0.0013100000000001444
1751.0	9.75363	241.8875	2.0874999999999773	0.0026900000000011914
5835.19922	26.15193	389.14374	2.0874999999999773	0.004079999999998307
318.39941	2.12119	114.58125	2.0874999999999915	0.0013100000000001444
292.19922	1.9465	111.24375	2.0875000000000057	0.0013900000000000023
1139.59961	6.49935	195.3625	2.087510000000009	0.001300000000000523
1472.59961	7.89786	215.47501	2.087510000000009	0.0026999999999999247
705.0	4.24491	157.85001	2.087510000000009	0.002609999999999779
1184.39941	6.79798	199.16251	2.087510000000009	0.0026900000000003033
1768.59961	9.87096	242.97501	2.087510000000009	0.0026100000000006673
712.39941	4.2942	159.51875	2.087510000000009	0.005379999999999718
3152.39941	15.57412	308.10626	2.0875200000000405	0.0039999999999995595
1960.79981	10.15148	247.9375	2.125	0.0013900000000006685
1194.0	6.86195	200.66251	2.125	0.002689999999999415
6569.2002	28.82094	402.99374	2.125	0.004000000000001336
1719.39941	9.54295	238.25626	2.125	0.002700000000000813
1952.19922	10.09412	246.26875	2.125	0.0013900000000006685
1440.0	7.6805	214.80624	2.125	0.0040800000000000836
776.39941	4.72085	165.56876	2.125	0.0012999999999996348
783.7998	4.77013	167.6125	2.125	0.0013899999999997803
1702.59961	9.43101	237.38126	2.125	0.002609999999998891
1537.79981	8.33243	221.89999	2.125	0.0013100000000001444
2068.39941	10.86869	255.65625	2.125	0.002689999999999415
1615.19922	8.84843	228.825	2.125	0.0013100000000001444
7306.2002	31.37466	414.71875	2.125	0.004000000000001336
3156.59961	15.60211	309.02499	2.125	0.003989999999999938
1145.19922	6.53672	195.95	2.131239999999991	0.001300000000000523
1156.39941	6.61129	196.2	2.131239999999991	0.0026999999999999247
2081.79981	10.95812	255.99374	2.131239999999991	0.0026100000000006673
1506.0	8.12045	218.35625	2.131239999999991	0.0013900000000006685
2033.79981	10.63811	251.6125	2.1312500000000227	0.0026900000000011914
2544.0	12.87581	279.02499	2.1312500000000227	0.002700000000000813
1763.79981	9.83898	242.10001	2.1312599999999975	0.0026100000000006673
2038.0	10.66609	252.28125	2.1312599999999975	0.0026999999999990365
1452.59961	7.76454	214.60001	2.1312599999999975	0.0012999999999996348
1622.19922	8.89502	229.16251	2.1312599999999975	0.002689999999999415
1691.19922	9.35496	235.13126	2.1312599999999975	0.0013100000000001444
12758.99902	48.16403	458.23749	2.1687299999999823	0.008000000000002672
795.7998	4.85018	168.74374	2.168740000000014	0.0012999999999996348
2057.39941	10.79542	253.7375	2.168740000000014	0.002689999999999415
1552.59961	8.43108	222.4875	2.168740000000014	0.001300000000000523
1176.39941	6.74462	199.49374	2.168740000000014	0.002689999999999415
801.0	4.88485	169.49374	2.168740000000014	0.0039999999999995595
927.59961	5.08623	173.45625	2.168740000000014	0.0026100000000006673
347.19922	2.31318	119.50625	2.1687499999999886	0.0012300000000000644
1509.79981	8.14583	219.4375	2.1687499999999886	0.002689999999999415
947.59961	5.21955	175.375	2.1687499999999886	0.002609999999999779
2506.19922	12.62385	277.35626	2.1687600000000202	0.0026100000000006673
4442.59961	20.88407	354.00626	2.168769999999995	0.003999999999997783
1461.79981	7.82582	214.97501	2.168769999999995	0.002689999999999415
297.59961	1.98256	111.7875	2.174999999999997	0.002610000000000001
1043.79981	5.86079	186.01875	2.1750000000000114	0.0013100000000001444
3946.19922	19.31095	341.70001	2.1750200000000177	0.006690000000002527
4686.0	22.50656	366.06876	2.1750200000000177	0.004010000000000957
2545.79981	12.88781	279.06876	2.1750200000000177	0.002689999999999415
1944.39941	10.04223	246.10001	2.206259999999986	0.0026100000000006673
2578.79981	13.10779	282.03125	2.2124900000000025	0.003989999999999938
12094.59863	46.69756	456.65625	2.2124900000000025	0.017369999999999663
788.7998	4.8035	167.15625	2.2124900000000025	0.0013100000000001444
778.19922	4.73276	165.15625	2.2124900000000025	0.0013899999999997803
1468.19922	7.86849	216.0625	2.2124900000000025	0.0013899999999997803
2542.39941	12.86513	278.77499	2.2124900000000025	0.002609999999998891
2588.19922	13.17037	281.90625	2.2124900000000025	0.002689999999999415
4491.19922	21.20808	354.96875	2.2124900000000025	0.0026100000000006673
1957.19922	10.12749	246.85625	2.2124999999999773	0.0013100000000001444
3913.59961	19.09366	339.36249	2.2124999999999773	0.00408000000000186
3434.0	17.45126	324.63126	2.2124999999999773	0.00269999999999726
1661.79981	9.15898	233.79375	2.2124999999999773	0.003989999999999938
1980.59961	10.2835	248.23125	2.2124999999999773	0.002689999999999415
4027.19922	19.85085	345.58124	2.2124999999999773	0.0027799999999977842
1501.0	8.08716	218.10625	2.2124999999999773	0.002609999999998891
1968.0	10.19954	248.35625	2.2124999999999773	0.002609999999998891
305.0	2.03185	112.70625	2.2124999999999915	0.0013000000000000789
312.0	2.07852	114.25	2.2125000000000057	0.0012999999999996348
1716.79981	9.52566	237.675	2.212510000000009	0.001300000000000523
3234.0	16.11802	313.07501	2.2125200000000405	0.004079999999998307
2533.19922	12.80377	278.48126	2.2125200000000405	0.0013799999999992707
2537.59961	12.83314	277.98126	2.2125200000000405	0.0026100000000006673
924.39941	5.06485	173.08125	2.25	0.004000000000000448
1052.59961	5.91946	186.05624	2.25	0.0013100000000001444
5199.59961	24.00756	375.28751	2.25	0.0066899999999989745
2536.19922	12.82376	278.0625	2.25	0.002689999999999415
751.59961	4.55554	163.77499	2.25	0.0026900000000003033
1651.39941	9.0897	232.66875	2.256239999999991	0.002689999999999415
1591.79981	8.69242	227.24374	2.256239999999991	0.002689999999999415
1754.39941	9.77631	241.2625	2.256239999999991	0.002609999999998891
1979.19922	10.27412	248.14999	2.256239999999991	0.0013799999999992707
1684.39941	9.30968	235.63126	2.2562599999999975	0.007999999999999119
1698.0	9.40033	236.13126	2.2562599999999975	0.0013899999999988921
1642.59961	9.03104	231.375	2.2562599999999975	0.002689999999999415
933.7998	5.12751	174.25	2.2562599999999975	0.0013899999999997803
1725.39941	9.58302	238.34375	2.2562599999999975	0.0026100000000006673
1548.59961	8.40448	222.19376	2.2562599999999975	0.001300000000000523
700.0	4.21154	156.22501	2.2562599999999975	0.002689999999999415
2607.39941	13.29839	283.98749	2.2937299999999823	0.0026900000000011914
7217.39941	30.78278	414.92499	2.2937299999999823	0.006610000000002003
1654.59961	9.111	233.08125	2.293740000000014	0.002689999999999415
1974.59961	10.24352	247.64375	2.293740000000014	0.0026100000000006673
1949.0	10.07283	246.14375	2.293740000000014	0.002689999999999415
1629.0	8.94039	230.20625	2.293740000000014	0.002609999999998891
1471.59961	7.89117	216.26875	2.293740000000014	0.0013100000000001444
1094.39941	6.19802	189.39375	2.293740000000014	0.0013900000000006685
1678.19922	9.26831	234.91875	2.2937499999999886	0.0013100000000001444
1962.19922	10.16086	247.9375	2.2937499999999886	0.0013100000000001444
938.19922	5.1568	174.625	2.2937499999999886	0.002700000000000813
1982.0	10.2928	248.3125	2.2937499999999886	0.002700000000000813
2238.19922	12.00064	269.84375	2.2937600000000202	0.0039999999999995595
2130.0	11.27935	260.375	2.2937600000000202	0.002689999999999415
2550.79981	12.9211	279.31876	2.293769999999995	0.0026100000000006673
3329.0	16.75127	318.03751	2.293769999999995	0.0026899999999976387
3439.79981	17.48986	324.29999	2.2999899999999798	0.004000000000001336
1126.19922	6.41	193.1125	2.3000000000000114	0.0013100000000001444
2043.59961	10.70338	254.075	2.300009999999986	0.0040800000000000836
3909.79981	19.06837	339.27499	2.331230000000005	0.0026099999999971146
1958.79981	10.13818	247.51875	2.3312500000000114	0.002689999999999415
706.19922	4.25291	157.9375	2.3374900000000025	0.0026900000000003033
1976.19922	10.25421	247.8125	2.3374900000000025	0.002609999999998891
3291.59961	16.502	314.99374	2.3374900000000025	0.0026900000000011914
2293.19922	12.36724	273.30624	2.3374900000000025	0.002689999999999415
1599.39941	8.74309	226.86874	2.3374900000000025	0.002689999999999415
1998.79981	10.40483	250.77499	2.3374900000000025	0.002609999999998891
1631.59961	8.95768	230.5	2.3374900000000025	0.002700000000000813
1511.39941	8.15652	219.60625	2.3374999999999773	0.0012999999999987466
2489.0	12.50913	275.89374	2.3374999999999773	0.0026999999999990365
3815.59961	18.44042	334.01874	2.3374999999999773	0.00531000000000148
1738.59961	9.67098	240.7625	2.3374999999999773	0.001300000000000523
2122.0	11.22607	259.16251	2.3374999999999773	0.0026100000000006673
221.39941	1.47456	99.9375	2.3375000000000057	0.0013900000000000023
1947.59961	10.06352	246.14375	2.337510000000009	0.0013100000000001444
7424.7998	32.16522	416.63751	2.3375200000000405	0.005390000000005557
1182.0	6.78199	199.36874	2.375	0.002689999999999415
2530.0	12.78247	279.10626	2.375	0.0039999999999995595
1966.39941	10.18885	248.3125	2.375	0.0026999999999990365
325.0	2.16517	116.20625	2.375	0.0013100000000001444
1977.59961	10.26351	247.9375	2.375	0.002689999999999415
3085.79981	15.13017	304.47501	2.375	0.0026900000000011914
1593.59961	8.70442	227.61874	2.381239999999991	0.002609999999998891
1983.59961	10.30349	248.73125	2.381239999999991	0.002689999999999415
737.39941	4.46089	161.23125	2.381239999999991	0.0013100000000001444
2181.59961	11.62335	263.21249	2.3812500000000227	0.002609999999998891
7914.7998	32.94322	423.64999	2.3812500000000227	0.0066000000000059345
3239.79981	16.1567	314.20001	2.3812500000000227	0.003999999999997783
5112.0	23.42368	371.82501	2.3812500000000227	0.0026100000000006673
6592.2002	28.97425	405.875	2.3812599999999975	0.010609999999999786
1465.0	7.84719	215.22501	2.3812599999999975	0.002609999999999779
3941.59961	19.28035	340.65625	2.3812599999999975	0.004000000000001336
2148.79981	11.40468	261.375	2.3812599999999975	0.002689999999999415
3083.59961	15.11548	304.14374	2.4187299999999823	0.002689999999999415
2180.19922	11.61405	263.71249	2.4187299999999823	0.0012999999999987466
1278.19922	7.42323	208.3	2.418740000000014	0.0013100000000001444
1225.79981	7.07393	204.0	2.4187499999999886	0.0026900000000003033
1500.0	8.08047	218.5625	2.4187499999999886	0.0013900000000006685
1424.39941	7.57655	212.0125	2.4187499999999886	0.0026900000000003033
1026.39941	5.74477	182.84375	2.4187499999999886	0.0026900000000003033
2534.59961	12.81315	278.3125	2.4187600000000202	0.002609999999998891
699.0	4.20493	156.60001	2.418769999999995	0.0013100000000001444
1609.39941	8.80975	228.91251	2.418769999999995	0.002700000000000813
1946.0	10.05284	246.10001	2.418769999999995	0.002689999999999415
9581.59863	38.75914	442.09375	2.4249899999999798	0.003989999999994609
1460.59961	7.81782	214.76875	2.4250000000000114	0.0013899999999997803
986.59961	5.47951	179.71875	2.4250000000000114	0.0012999999999996348
3154.19922	15.58611	308.06876	2.4250200000000177	0.002700000000000813
2747.19922	14.23027	293.75626	2.4250200000000177	0.002689999999999415
1095.79981	6.2074	189.64375	2.4562500000000114	0.005310000000000592
2549.19922	12.91049	279.60626	2.4562700000000177	0.0026100000000006673
2077.39941	10.92874	256.24374	2.4624900000000025	0.002700000000000813
3326.79981	16.73667	318.0	2.4624900000000025	0.003989999999998162
2102.59961	11.09675	257.49374	2.4624900000000025	0.003989999999999938
1934.0	9.97287	245.4375	2.4624900000000025	0.0039999999999995595
3128.59961	15.4155	306.77499	2.4624900000000025	0.0026100000000006673
1037.59961	5.81943	185.05624	2.4624900000000025	0.0026900000000003033
728.7998	4.40353	159.98125	2.4624999999999773	0.0026900000000003033
3436.0	17.46456	325.04999	2.4624999999999773	0.002700000000000813
3166.59961	15.66877	307.81876	2.4624999999999773	0.002689999999999415
10437.99902	41.6921	448.89374	2.4624999999999773	0.01199999999999335
2050.39941	10.74883	254.6125	2.462510000000009	0.003920000000000812
1187.0	6.81528	200.20625	2.462510000000009	0.0013900000000006685
632.39941	3.76098	149.25626	2.462510000000009	0.0013100000000001444
1459.39941	7.80991	214.64375	2.462510000000009	0.0012999999999996348
1032.0	5.78214	183.59375	2.5	0.002609999999999779
2809.59961	14.64624	297.13126	2.5	0.002689999999999415
395.7998	2.63711	126.0125	2.5	0.0013000000000000789
2270.59961	12.21654	271.09375	2.5	0.002689999999999415
5842.19922	26.19868	388.80624	2.5	0.003920000000000812
2547.39941	12.8985	279.10626	2.5	0.002609999999998891
2107.0	11.12612	257.99374	2.5	0.003909999999999414
7313.39941	31.42272	416.38751	2.5	0.0026099999999971146
1479.19922	7.94184	217.51875	2.5	0.0026999999999999247
7431.2002	32.20789	415.59375	2.5	0.001310000000003697
3826.0	18.50978	335.14374	2.5	0.004000000000001336
4489.19922	21.1947	354.17499	2.5062299999999595	0.0026899999999976387
2134.0	11.30603	261.04376	2.5062500000000227	0.0013100000000001444
2693.79981	13.87436	289.95624	2.5437299999999823	0.004000000000001336
2021.59961	10.55676	251.89999	2.543740000000014	0.002689999999999415
1223.19922	7.05663	203.70625	2.543740000000014	0.002609999999999779
3421.79981	17.36991	325.13126	2.543769999999995	0.003920000000000812
1147.39941	6.55132	195.31876	2.543769999999995	0.004000000000000448
1627.59961	8.931	230.28751	2.543769999999995	0.002700000000000813
5114.39941	23.43967	372.49374	2.549980000000005	0.005300000000001859
5289.7998	24.60891	379.71249	2.549980000000005	0.0026099999999971146
11873.99902	45.22707	456.15625	2.5499899999999798	0.01868000000000336
1249.19922	7.22994	207.175	2.5500000000000114	0.006689999999999863
8658.20019	35.29099	433.86874	2.581230000000005	0.009309999999999263
3817.59961	18.45381	333.5625	2.5874900000000025	0.0026100000000006673
1730.39941	9.61631	239.96875	2.5874900000000025	0.002689999999999415
1074.39941	6.0647	189.48125	2.5874999999999773	0.002689999999999415
241.0	1.60528	103.15	2.5875000000000057	0.0012999999999998568
355.7998	2.37046	120.2125	2.5875000000000057	0.002689999999999859
817.0	4.9915	170.78751	2.587510000000009	0.002609999999999779
759.7998	4.61021	164.3625	2.587510000000009	0.002609999999999779
7426.7998	32.1786	415.63751	2.5875200000000405	0.0026099999999971146
5287.7998	24.59553	379.375	2.625	0.0026100000000006673
5840.19922	26.1853	388.80624	2.625	0.0026899999999976387
4654.59961	22.29728	364.26874	2.625	0.003999999999997783
2777.79981	14.43425	294.92499	2.6312299999999595	0.0026999999999990365
386.7998	2.57714	125.43125	2.6312500000000085	0.0013000000000000789
1106.0	6.27537	192.44376	2.6312599999999975	0.0013100000000001444
691.59961	4.15557	155.97501	2.6312599999999975	0.0012999999999996348
1134.79981	6.46736	195.15625	2.6312599999999975	0.0013100000000001444
1064.79981	6.00073	187.6875	2.6312599999999975	0.0026900000000003033
1205.19922	6.93661	201.625	2.6312599999999975	0.0013800000000001589
3282.79981	16.44334	314.86874	2.6687299999999823	0.0026900000000011914
2179.0	11.60597	265.21249	2.6687299999999823	0.0026900000000011914
2184.39941	11.64195	264.71249	2.6687299999999823	0.0013900000000006685
5836.59961	26.16131	388.05624	2.6687299999999823	0.004000000000001336
9429.59863	37.7459	440.83749	2.6687299999999823	0.013310000000004152
2787.39941	14.49822	296.79999	2.6687299999999823	0.002700000000000813
678.7998	4.07022	155.30624	2.668740000000014	0.0026900000000003033
1172.59961	6.71932	199.325	2.6687499999999886	0.0013100000000001444
1950.59961	10.08351	246.6875	2.6687499999999886	0.0026999999999990365
373.19922	2.48641	123.46875	2.668750000000003	0.0013800000000001589
3821.39941	18.4791	334.3125	2.6687600000000202	0.001300000000000523
6687.7998	29.6115	408.66876	2.6687600000000202	0.013380000000001502
7314.99902	31.43333	414.96875	2.6687600000000202	0.00537999999999883
2609.19922	13.31038	284.07501	2.6687600000000202	0.0026999999999990365
1458.19922	7.80183	215.14375	2.6750000000000114	0.0013800000000001589
2262.0	12.15926	271.05624	2.7124900000000025	0.001300000000000523
684.39941	4.10759	155.8875	2.7124999999999773	0.0039999999999995595
742.19922	4.49288	162.98125	2.7124999999999773	0.002689999999999415
661.59961	3.95566	152.6375	2.7124999999999773	0.0013100000000001444
1659.59961	9.14437	233.66875	2.7124999999999773	0.005300000000000082
540.7998	3.15033	136.8625	2.712510000000009	0.0027000000000003688
2070.19922	10.88077	256.20001	2.712510000000009	0.002689999999999415
2614.0	13.34237	284.57501	2.7125200000000405	0.00537999999999883
2552.39941	12.93179	279.48126	2.7125200000000405	0.001300000000000523
1240.19922	7.16997	205.5	2.75	0.005300000000000082
630.19922	3.74629	148.41875	2.75	0.0013099999999997003
3204.19922	15.91942	311.23749	2.7562299999999595	0.005309999999999704
5206.0	24.05024	374.95624	2.7562299999999595	0.00408000000000186
1674.79981	9.24563	234.29375	2.756239999999991	0.002689999999999415
1603.79981	8.77238	228.11874	2.756239999999991	0.0013900000000006685
1475.19922	7.91516	216.01875	2.7562500000000227	0.002689999999999415
8187.2002	34.759	427.28125	2.7562599999999975	0.0026200000000002888
5754.39941	25.61341	388.18124	2.7937299999999823	0.005300000000001859
611.19922	3.61966	146.41875	2.7937499999999886	0.002609999999999779
3366.79981	17.00323	320.91876	2.7937600000000202	0.0026900000000011914
4333.7998	20.15887	350.41876	2.7937600000000202	0.0066899999999989745
1535.0	8.31383	222.06876	2.793769999999995	0.0026100000000006673
2291.19922	12.35394	273.47501	2.793769999999995	0.0039999999999995595
1039.0	5.82873	184.85001	2.800009999999986	0.0039999999999995595
3846.19922	18.64441	335.14374	2.8312399999999798	0.003999999999997783
2265.0	12.17925	269.59375	2.8374900000000025	0.0039999999999995595
8651.20019	35.24432	432.49374	2.8374900000000025	0.003999999999997783
2120.39941	11.21538	259.24374	2.8374900000000025	0.0013100000000001444
1444.79981	7.71256	215.05624	2.8374900000000025	0.0026200000000002888
4604.0	21.95997	361.76874	2.8374999999999773	0.004000000000001336
3424.79981	17.3899	325.42499	2.8374999999999773	0.003999999999997783
3333.79981	16.78334	318.91251	2.8374999999999773	0.0026100000000006673
2702.0	13.92903	291.08124	2.875	0.00391000000000119
8191.59863	34.7883	427.81876	2.875	0.0026900000000011914
652.39941	3.89431	151.8	2.8812500000000227	0.002689999999999859
2020.0	10.54615	251.6125	2.8812500000000227	0.001309999999998368
2147.19922	11.39407	261.66876	2.8812500000000227	0.0026100000000006673
2731.19922	14.12363	292.79376	2.8812500000000227	0.002689999999999415
2745.39941	14.21828	293.88126	2.8812599999999975	0.002689999999999415
4460.7998	21.0054	356.46875	2.8812599999999975	0.014689999999998093
5109.7998	23.40899	371.40625	2.8812599999999975	0.0026100000000006673
2816.0	14.68891	298.71875	2.8812599999999975	0.0039999999999995595
4608.59961	21.99065	362.14374	2.9187299999999823	0.005300000000001859
5203.7998	24.03563	374.83124	2.9249899999999798	0.003999999999997783
2272.0	12.22592	270.59375	2.9624900000000025	0.0013899999999988921
1231.59961	7.11261	205.58749	2.9624900000000025	0.0026900000000003033
7420.2002	32.13462	419.18124	2.9624900000000025	0.010609999999999786
15178.79981	55.07494	464.08124	2.9624999999999773	0.01599000000000217
2128.39941	11.26866	260.53751	2.9624999999999773	0.0013899999999988921
3416.19922	17.33254	324.25626	2.9624999999999773	0.005389999999998452
2751.0	14.25565	294.50626	2.9624999999999773	0.003989999999999938
1656.0	9.12038	232.83125	2.962510000000009	0.002609999999998891
281.0	1.87184	109.4875	3.0	0.0013900000000000023
2559.0	12.97577	280.11249	3.0062299999999595	0.0013799999999992707
2276.39941	12.25521	272.89374	3.0062299999999595	0.002689999999999415
4370.7998	20.40553	352.50626	3.0062599999999975	0.003990000000001714
3335.79981	16.79664	319.125	3.0062599999999975	0.0026100000000006673
14337.59863	52.61733	463.25	3.0062599999999975	0.01468999999999454
3331.39941	16.76734	319.08124	3.0437299999999823	0.0053099999999979275
3342.19922	16.83931	320.20624	3.0437299999999823	0.0066899999999989745
2090.0	11.01278	257.74374	3.043740000000014	0.0013100000000001444
5302.0	24.69018	381.54376	3.0437600000000202	0.007989999999999498
2783.79981	14.47424	296.09375	3.0499899999999798	0.002689999999999415
3158.59961	15.6154	309.11249	3.0499899999999798	0.004000000000001336
1635.0	8.98037	231.25	3.0500000000000114	0.002689999999999415
2041.59961	10.69008	254.2	3.050009999999986	0.0040800000000000836
695.19922	4.17956	156.30624	3.0874900000000025	0.0012999999999996348
1996.79981	10.39145	250.77499	3.0874900000000025	0.0013899999999988921
4991.59961	22.62112	369.11249	3.0874999999999773	0.009299999999999642
8189.39941	34.77361	427.61249	3.0874999999999773	0.0026900000000011914
3286.59961	16.46863	315.32501	3.0875200000000405	0.00537999999999883
1682.59961	9.29768	235.54375	3.125	0.002700000000000813
3925.39941	19.17232	341.28125	3.1312599999999975	0.005300000000001859
9745.39941	39.85102	442.79999	3.1687299999999823	0.00261000000000422
3432.0	17.43788	325.42499	3.1687299999999823	0.0026900000000011914
1585.59961	8.65105	226.90625	3.1687499999999886	0.002700000000000813
4034.0	19.8963	346.91251	3.168769999999995	0.003920000000000812
6389.39941	27.62241	401.03125	3.2124900000000025	0.008000000000002672
1620.79981	8.88572	229.99374	3.2124900000000025	0.0026900000000011914
3438.39941	17.48055	325.88126	3.2124999999999773	0.0026200000000002888
8046.2002	33.81913	426.61249	3.2124999999999773	0.00790999999999542
1707.39941	9.46299	238.175	3.212510000000009	0.0013100000000001444
658.39941	3.93429	152.675	3.25	0.0013000000000000789
1701.0	9.42032	237.33749	3.25	0.0013100000000001444
2258.59961	12.13658	271.09375	3.25	0.003989999999999938
13504.39941	50.11437	461.45001	3.25	0.014679999999998472
2672.19922	13.73034	288.36874	3.25	0.0013100000000001444
1598.0	8.73371	227.24374	3.256239999999991	0.0013899999999988921
724.19922	4.37285	159.98125	3.256239999999991	0.0013900000000006685
1671.59961	9.22433	234.41875	3.256239999999991	0.0013100000000001444
2553.79981	12.94109	279.27499	3.2562500000000227	0.002689999999999415
2555.59961	12.95308	279.44376	3.2562599999999975	0.002700000000000813
2775.39941	14.41826	295.88126	3.2562599999999975	0.006690000000000751
2509.79981	12.64784	278.60626	3.2937600000000202	0.002609999999998891
3826.79981	18.51508	332.8125	3.2999899999999798	0.0053099999999979275
3337.39941	16.80732	318.5	3.2999899999999798	0.0053099999999979275
1192.59961	6.85265	201.20625	3.3000000000000114	0.0026900000000003033
1640.79981	9.01904	232.0	3.3000000000000114	0.0039999999999995595
4448.59961	20.92405	355.76251	3.3000200000000177	0.003999999999997783
2636.39941	13.49168	286.41251	3.3000200000000177	0.0026999999999990365
2487.0	12.49583	276.23126	3.3000200000000177	0.002689999999999415
2263.59961	12.16995	270.84375	3.3374900000000025	0.0026100000000006673
2101.0	11.08606	258.49374	3.3374900000000025	0.002689999999999415
792.59961	4.82888	169.11874	3.3374900000000025	0.001300000000000523
2285.39941	12.31527	272.60001	3.3374999999999773	0.0026100000000006673
752.7998	4.56354	163.56876	3.337510000000009	0.001300000000000523
1723.79981	9.57225	238.75626	3.337510000000009	0.002689999999999415
1565.19922	8.51512	225.2375	3.337510000000009	0.0026900000000011914
3427.79981	17.40989	325.50626	3.375	0.003920000000000812
7116.39941	30.10947	413.54999	3.3812299999999595	0.009379999999996613
4440.19922	20.86808	354.29999	3.3812299999999595	0.004000000000001336
1010.59961	5.63943	182.59375	3.4187499999999886	0.006689999999999863
1092.0	6.18203	190.3125	3.4187499999999886	0.0026900000000003033
4503.0	21.28674	358.01251	3.4187600000000202	0.005299999999998306
7308.39941	31.38934	415.21875	3.4187600000000202	0.002700000000000813
8984.20019	37.464	438.21249	3.424980000000005	0.007989999999999498
1551.19922	8.42178	223.40625	3.4250000000000114	0.0026100000000006673
1704.39941	9.443	238.21875	3.4250000000000114	0.0026200000000002888
1497.19922	8.06179	218.73125	3.425009999999986	0.002689999999999415
5927.59961	26.76788	392.10626	3.4250200000000177	0.0026899999999976387
3823.79981	18.49509	335.0625	3.4624900000000025	0.0026099999999971146
736.19922	4.45289	161.89999	3.4624900000000025	0.0013100000000001444
1771.39941	9.88956	243.0125	3.4624999999999773	0.002700000000000813
5166.39941	23.78628	375.95624	3.5062299999999595	0.0066099999999984504
2063.59961	10.83679	255.53125	3.5062599999999975	0.002609999999998891
2001.79981	10.42482	250.19376	3.5062599999999975	0.002609999999998891
2032.19922	10.62742	252.40625	3.5062599999999975	0.002689999999999415
8184.59863	34.74162	428.15625	3.5062599999999975	0.005390000000005557
7310.59863	31.40403	415.17499	3.5437299999999823	0.0026100000000006673
2576.79981	13.09449	282.48749	3.5437299999999823	0.0025999999999992696
1102.0	6.24869	192.23125	3.5437499999999886	0.0026900000000003033
3164.39941	15.65408	306.98126	3.5437600000000202	0.002689999999999415
708.39941	4.26751	158.85001	3.543769999999995	0.0013900000000006685
2132.19922	11.29396	261.375	3.5499899999999798	0.0013799999999992707
1766.79981	9.85897	243.22501	3.550009999999986	0.0026100000000006673
6492.99902	28.31302	403.53751	3.5500200000000177	0.0026099999999971146
932.59961	5.11952	175.125	3.5874900000000025	0.001300000000000523
806.19922	4.91945	169.7	3.5874999999999773	0.002689999999999415
2174.79981	11.57799	264.29376	3.5875200000000405	0.001380000000001047
2045.59961	10.71676	254.075	3.59375	0.0026999999999990365
2848.19922	14.9035	301.51251	3.625	0.0026900000000011914
7449.59863	32.33053	420.76874	3.6312299999999595	0.0066899999999989745
2232.59961	11.96327	268.79999	3.6687299999999823	0.0026900000000011914
7433.59863	32.22389	417.51251	3.6687600000000202	0.0040000000000048885
1493.0	8.0338	218.89999	3.674980000000005	0.0026100000000006673
1456.59961	7.79122	216.01875	3.6750000000000114	0.002609999999999779
3841.39941	18.61242	333.73126	3.6750200000000177	0.009309999999999263
3172.79981	15.71005	309.77499	3.7124900000000025	0.0026999999999990365
1572.0	8.5604	226.45	3.7124999999999773	0.002700000000000813
4009.39941	19.7323	345.66251	3.7124999999999773	0.004000000000001336
2217.19922	11.86063	268.04999	3.7124999999999773	0.003989999999999938
812.59961	4.96212	170.7	3.7124999999999773	0.0026900000000003033
1045.19922	5.8701	186.22501	3.712510000000009	0.001300000000000523
1470.0	7.88057	217.26875	3.712510000000009	0.0026100000000006673
8647.99902	35.22295	431.57501	3.7125200000000405	0.003990000000001714
1153.0	6.58869	196.99374	3.71875	0.0026100000000006673
12672.20019	47.58545	458.86874	3.71875	0.010609999999999786
1752.79981	9.76563	242.2625	3.756239999999991	0.001300000000000523
3242.79981	16.17669	314.32501	3.7562500000000227	0.00537999999999883
4651.7998	22.27859	365.0625	3.7562599999999975	0.0066899999999989745
3757.39941	18.05253	331.35001	3.7562599999999975	0.003909999999997638
3836.79981	18.58174	333.89374	3.7937299999999823	0.004000000000001336
784.7998	4.77682	167.4875	3.793740000000014	0.0026999999999999247
1422.59961	7.56455	212.5125	3.7937499999999886	0.0026900000000003033
1431.59961	7.62453	213.80624	3.799980000000005	0.0013800000000001589
7342.39941	31.61601	418.51874	3.7999899999999798	0.007920000000002148
1611.39941	8.82305	229.66251	3.800009999999986	0.0013899999999988921
1735.0	9.64699	240.5125	3.8374999999999773	0.002609999999998891
1288.59961	7.49259	210.8875	3.84375	0.002609999999999779
2163.59961	11.50333	263.33749	3.84375	0.0013799999999992707
3295.59961	16.52868	316.91251	3.8812599999999975	0.003999999999997783
2012.19922	10.49418	251.44376	3.8812599999999975	0.001300000000000523
9747.79981	39.86693	442.92499	3.9187299999999823	0.005389999999998452
5689.7998	25.18276	386.46875	3.9187600000000202	0.005380000000002383
1277.0	7.41524	209.88126	3.918769999999995	0.001300000000000523
2204.19922	11.77397	266.50626	3.9624999999999773	0.0013899999999988921
10210.20019	40.17365	445.63751	4.006250000000023	0.00929000000000002
9759.20019	39.94298	444.80624	4.006250000000023	0.007989999999999498
2198.79981	11.73799	265.96249	4.006250000000023	0.001300000000000523
3280.59961	16.42865	315.45001	4.006250000000023	0.0026899999999976387
1267.79981	7.35388	208.46249	4.043740000000014	0.0013899999999997803
1964.39941	10.17547	249.02499	4.049980000000005	0.002689999999999415
3091.79981	15.17023	305.98126	4.050020000000018	0.005300000000000082
3169.0	15.68476	308.56876	4.050020000000018	0.0039999999999995595
2278.39941	12.26859	272.26251	4.0875200000000405	0.0026200000000002888
2678.79981	13.77432	290.16876	4.131250000000023	0.004000000000001336
11015.59863	42.69938	452.23126	4.131250000000023	0.010680000000000689
5925.19922	26.75189	392.48126	4.131250000000023	0.003990000000001714
4024.79981	19.83494	345.91251	4.1312599999999975	0.0026100000000006673
1712.19922	9.49498	238.46875	4.1312599999999975	0.002689999999999415
4451.19922	20.94143	356.01251	4.175020000000018	0.004000000000001336
2188.79981	11.67133	266.00626	4.175020000000018	0.005300000000000082
1955.39941	10.11558	247.76875	4.212510000000009	0.0012199999999999989
7428.7998	32.1919	415.88751	4.2125200000000405	0.0027000000000043656
1163.0	6.65535	197.99374	4.21875	0.0013099999999992562
3839.19922	18.59774	334.14374	4.2562299999999595	0.003989999999998162
4681.59961	22.47719	365.85626	4.29376000000002	0.0026900000000011914
2023.39941	10.56875	252.31876	4.293769999999995	0.0039999999999995595
1986.59961	10.32348	249.14999	4.381239999999991	0.0013900000000006685
2611.79981	13.32776	285.24374	4.381250000000023	0.0026100000000006673
2054.19922	10.77404	254.9875	4.381250000000023	0.0026900000000011914
6500.59863	28.36369	404.16251	4.3812599999999975	0.00391000000000119
1540.59961	8.35112	222.89999	4.418740000000014	0.001300000000000523
2624.0	13.40903	285.82501	4.41876000000002	0.0026900000000011914
5852.19922	26.26526	391.89374	4.42498999999998	0.005389999999998452
1201.19922	6.91001	202.25	4.46875	0.0012199999999999989
3413.19922	17.31255	323.79999	4.46875	0.003999999999997783
3178.0	15.74473	310.61249	4.5062299999999595	0.002689999999999415
1525.59961	8.25116	222.27499	4.506239999999991	0.002609999999998891
8632.99902	35.12299	432.32501	4.506250000000023	0.00531000000000148
2790.0	14.5156	297.88751	4.506250000000023	0.002700000000000813
1664.0	9.17366	234.5	4.5062599999999975	0.002689999999999415
9584.59863	38.77913	443.34375	4.5062599999999975	0.0026900000000011914
1689.39941	9.34297	236.46249	4.543740000000014	0.0026900000000011914
2517.39941	12.69843	279.64999	4.549980000000005	0.002689999999999415
8193.79981	34.80298	427.98749	4.54998999999998	0.003920000000000812
4492.7998	21.21869	355.04999	4.54998999999998	0.005380000000002383
2268.59961	12.20324	271.97501	4.550020000000018	0.001380000000001047
1449.59961	7.74455	215.80624	4.5874900000000025	0.002609999999999779
5291.59961	24.6209	379.66876	4.631250000000023	0.005300000000001859
2071.79981	10.89146	256.03125	4.6312599999999975	0.003989999999999938
1113.0	6.32204	193.69376	4.6312599999999975	0.0026999999999999247
2562.79981	13.00114	281.44376	4.6312599999999975	0.0026100000000006673
9659.39941	39.27774	444.59375	4.67498999999998	0.007999999999995566
1518.39941	8.20311	221.7375	4.675000000000011	0.0013799999999992707
1942.39941	10.02885	247.1875	4.675000000000011	0.002689999999999415
4487.59961	21.18401	356.76251	4.71875	0.002700000000000813
2806.79981	14.62755	298.54999	4.793729999999982	0.006690000000000751
943.7998	5.19417	176.29375	4.800009999999986	0.0026999999999999247
1482.39941	7.96322	218.35625	4.800009999999986	0.0013100000000001444
2080.0	10.94604	257.41251	4.84375	0.0013900000000006685
3360.59961	16.96195	321.46249	4.84375	0.003989999999998162
2112.79981	11.16471	259.53751	4.8812599999999975	0.0013900000000006685
5211.39941	24.08622	374.91251	4.8812599999999975	0.004079999999998307
5930.0	26.78387	392.39374	4.92498999999998	0.007989999999999498
6738.39941	29.94881	410.25626	5.0062599999999975	-0.008900000000000574
5208.19922	24.06492	375.36874	5.043729999999982	0.007999999999999119
9587.79981	38.80042	443.88751	5.050020000000018	0.003999999999997783
13868.99902	52.54456	459.28125	5.0874900000000025	-0.010769999999993729
5343.39941	24.96621	382.04999	5.09375	-0.00841000000000136
2668.0	13.70236	288.70624	5.09375	0.002689999999999415
8229.39941	35.04018	430.03125	5.1312599999999975	-0.009389999999996235
2221.0	11.88592	268.51251	5.13751000000002	0.002689999999999415
2137.59961	11.33002	262.08124	5.168729999999982	0.0026900000000011914
12218.20019	47.52148	455.02499	5.174980000000005	-0.008889999999993847
1971.39941	10.22214	249.44376	5.21875	0.0026900000000011914
4453.7998	20.95873	355.79999	5.2562299999999595	0.004000000000001336
14698.79981	55.02484	460.20001	5.256250000000023	-0.010770000000000834
4688.39941	22.52256	365.3125	5.2562599999999975	-0.008979999999997546
13041.59863	50.04763	457.53125	5.29998999999998	-0.010779999999996903
2299.79981	12.41032	271.63751	5.381250000000023	-0.01069000000000031
11377.39941	45.11112	453.39999	5.424980000000005	-0.008809999999996876
1774.0	9.90678	243.43124	5.424980000000005	-0.010769999999999058
9783.99902	40.10829	441.63126	5.425020000000018	-0.010279999999994516
5060.39941	23.07968	371.86874	5.46875	0.004000000000001336
2864.0	15.00884	301.63751	5.506250000000023	-0.00350999999999857
3447.19922	17.53898	326.96875	5.5062599999999975	-0.009389999999999787
822.59961	5.02878	170.99374	5.549980000000005	-0.006120000000000125
10578.20019	42.62651	447.80624	5.549980000000005	-0.010680000000000689
3229.0	16.08473	313.28125	5.5874900000000025	0.0026900000000011914
4059.59961	20.06691	346.24374	5.631250000000023	-0.010200000000001097
6029.59961	27.4478	396.77499	5.631250000000023	-0.009550000000000836
9011.20019	37.64399	436.875	5.6312599999999975	-0.010280000000001621
7471.59863	32.47715	419.26874	5.67498999999998	-0.009540000000001214
398.19922	2.65294	125.0125	5.799999999999997	-0.009380000000000166
1291.79981	7.51299	208.84375	5.800000000000011	-0.01069000000000031
3162.79981	15.64347	309.89999	6.006250000000023	0.0013100000000001444
3834.79981	18.56844	336.35626	6.09375	0.0013100000000001444
